# entry-subent-pointer  : 11762-003-0 
# EXFOR reaction        : ['47-AG-0', ['N,TOT'], ',,SIG'] 
# incident energy       : 5.1100e-09 MeV - 8.1800e-08 MeV 
# target                : Ag-0 
# product               : - 
# level energy          : - 
# MF-MT number          : 3 - 1 
# first author          : R.G.Allen 
# institute             : (1USAORL): Oak Ridge National Laboratory, Oak Ridge, TN 
# reference             : (J,PR,96,1297,5412) 
# year                  : 1954 
# facility              : (SPECC): Crystal spectrometer 
# git                   : https://github.com/IAEA-NDS/exfor_master/blob/main/exforall/117/11762.x4 
# nds                   : https://nds.iaea.org/EXFOR/11762
#
#       E_in(MeV)       dE_in(MeV)            XS(B)           dXS(B)
      5.11000E-09      0.00000E+00      1.45000E+02      0.00000E+00
      6.69000E-09      0.00000E+00      1.30000E+02      0.00000E+00
      9.09000E-09      0.00000E+00      1.11000E+02      0.00000E+00
      1.08000E-08      0.00000E+00      1.03000E+02      0.00000E+00
      1.12000E-08      0.00000E+00      9.70000E+01      0.00000E+00
      1.42000E-08      0.00000E+00      9.08000E+01      0.00000E+00
      1.44000E-08      0.00000E+00      9.00000E+01      0.00000E+00
      1.46000E-08      0.00000E+00      8.99000E+01      0.00000E+00
      1.51000E-08      0.00000E+00      8.75000E+01      0.00000E+00
      1.53000E-08      0.00000E+00      8.78000E+01      0.00000E+00
      1.56000E-08      0.00000E+00      8.49000E+01      0.00000E+00
      1.59000E-08      0.00000E+00      8.49000E+01      0.00000E+00
      1.63000E-08      0.00000E+00      8.20000E+01      0.00000E+00
      1.69000E-08      0.00000E+00      8.20000E+01      0.00000E+00
      1.73000E-08      0.00000E+00      8.15000E+01      0.00000E+00
      2.05000E-08      0.00000E+00      7.60000E+01      0.00000E+00
      2.67000E-08      0.00000E+00      6.70000E+01      0.00000E+00
      3.64000E-08      0.00000E+00      5.80000E+01      0.00000E+00
      5.24000E-08      0.00000E+00      4.90000E+01      0.00000E+00
      8.18000E-08      0.00000E+00      4.00000E+01      0.00000E+00
