# entry-subent-pointer  : O0703-012-0 
# EXFOR reaction        : ['23-V-51', ['P,X'], '21-SC-48,,SIG'] 
# incident energy       : 4.5200e+01 MeV - 2.5500e+03 MeV 
# target                : V-51 
# product               : Sc-48 
# level energy          : - 
# MF-MT number          : 3 - 10 
# first author          : J.Protoschill 
# institute             : (2GERUH): University Hannover (previously Tech.University Hannover) 
# reference             : (T,PROTOSCHILL,1997) 
# year                  : 1997 
# facility              : (SYNCH): Synchrotron 
# git                   : https://github.com/IAEA-NDS/exfor_master/blob/main/exforall/O07/O0703.x4 
# nds                   : https://nds.iaea.org/EXFOR/O0703
#
#       E_in(MeV)       dE_in(MeV)            XS(B)           dXS(B)
      4.52000E+01      1.15000E+00      2.52000E-04      2.80000E-05
      5.13000E+01      1.11000E+00      1.09600E-03      2.53000E-04
      5.78000E+01      1.03000E+00      1.75200E-03      1.79000E-04
      7.10000E+01      1.58000E+00      2.57100E-03      2.70000E-04
      7.51000E+01      1.55000E+00      2.65000E-03      2.77000E-04
      7.98000E+01      7.80000E-01      2.60300E-03      2.72000E-04
      8.62000E+01      6.70000E-01      2.75500E-03      2.86000E-04
      8.67000E+01      1.47000E+00      2.87200E-03      3.00000E-04
      1.04000E+02      1.35000E+00      3.03700E-03      3.16000E-04
      1.10000E+02      1.30000E+00      3.25700E-03      3.39000E-04
      1.19000E+02      1.23000E+00      3.23000E-03      3.35000E-04
      1.27000E+02      1.15000E+00      3.28300E-03      3.44000E-04
      1.29000E+02      1.36000E+00      3.31900E-03      3.40000E-04
      1.34000E+02      1.08000E+00      3.28400E-03      3.40000E-04
      1.34000E+02      1.32000E+00      3.34900E-03      3.41000E-04
      1.39000E+02      1.28000E+00      3.42300E-03      3.51000E-04
      1.44000E+02      1.23000E+00      3.34600E-03      3.41000E-04
      1.49000E+02      1.18000E+00      3.43400E-03      3.51000E-04
      1.54000E+02      1.14000E+00      3.56900E-03      3.64000E-04
      1.59000E+02      1.09000E+00      3.57500E-03      3.65000E-04
      1.64000E+02      1.04000E+00      3.58700E-03      3.66000E-04
      2.77000E+02      5.80000E-01      4.18800E-03      4.20000E-04
      9.54000E+02      1.59000E+00      6.16000E-03      6.45000E-04
      1.35000E+03      1.58000E+00      5.95100E-03      6.23000E-04
      2.55000E+03      1.63000E+00      4.91200E-03      5.00000E-04
