# entry-subent-pointer  : P0051-002-0 
# EXFOR reaction        : (6-C-12(P,X)6-C-11,,SIG) 
# incident energy       : 2.7600e+01 MeV - 4.1800e+01 MeV 
# target                : C-12 
# product               : C-11 
# level energy          : - 
# MF-MT number          : 3 - 10 
# first author          : Whitehead 
# institute             : (1CANMCG): McGill University, Montreal,Quebec 
# reference             : (J,CJP,36,1276,1958) 
# year                  : 1958 
# facility              : (SYNCY): Synchro cyclotron 
# git                   : https://github.com/IAEA-NDS/exfor_master/blob/main/exforall/P00/P0051.x4 
# nds                   : https://nds.iaea.org/EXFOR/P0051
#
#       E_in(MeV)         dE_in(MeV)        XS(B)             dXS(B)
        2.7600E+01        8.2800E-01        7.6500E-02        0.0000E+00
        2.8100E+01        8.4300E-01        7.7500E-02        0.0000E+00
        2.8700E+01        8.6100E-01        8.0000E-02        0.0000E+00
        2.9400E+01        8.8200E-01        8.1900E-02        0.0000E+00
        2.9900E+01        8.9700E-01        8.4900E-02        0.0000E+00
        3.0600E+01        9.1800E-01        8.4700E-02        0.0000E+00
        3.1100E+01        9.3300E-01        8.5600E-02        0.0000E+00
        3.1800E+01        9.5400E-01        8.8800E-02        0.0000E+00
        3.2400E+01        9.7200E-01        8.6300E-02        0.0000E+00
        3.3100E+01        9.9300E-01        8.7100E-02        0.0000E+00
        3.3400E+01        1.0020E+00        8.7200E-02        0.0000E+00
        3.3700E+01        1.0110E+00        8.8900E-02        0.0000E+00
        3.4000E+01        1.0200E+00        8.8200E-02        0.0000E+00
        3.4500E+01        1.0350E+00        8.8100E-02        0.0000E+00
        3.4800E+01        1.0440E+00        8.9100E-02        0.0000E+00
        3.5200E+01        1.0560E+00        8.6600E-02        0.0000E+00
        3.5700E+01        1.0710E+00        8.5500E-02        0.0000E+00
        3.6200E+01        1.0860E+00        8.4800E-02        0.0000E+00
        3.6600E+01        1.0980E+00        8.5700E-02        0.0000E+00
        3.7100E+01        1.1130E+00        8.5500E-02        0.0000E+00
        3.7600E+01        1.1280E+00        8.6000E-02        0.0000E+00
        3.8000E+01        1.1400E+00        8.6300E-02        0.0000E+00
        3.8300E+01        1.1490E+00        8.6700E-02        0.0000E+00
        3.8500E+01        1.1550E+00        8.4800E-02        0.0000E+00
        3.8800E+01        1.1640E+00        8.6400E-02        0.0000E+00
        3.9200E+01        1.1760E+00        8.6200E-02        0.0000E+00
        3.9600E+01        1.1880E+00        8.5300E-02        0.0000E+00
        4.0000E+01        1.2000E+00        8.1400E-02        0.0000E+00
        4.1000E+01        1.2300E+00        8.3200E-02        0.0000E+00
        4.1400E+01        1.2420E+00        8.4700E-02        0.0000E+00
        4.1800E+01        1.2540E+00        8.4700E-02        3.4500E-03
