# entry-subent-pointer  : O1424-002-0 
# EXFOR reaction        : ['13-AL-27', ['P,X'], '11-NA-22,,SIG'] 
# incident energy       : 2.4700e+01 MeV - 9.9460e+01 MeV 
# target                : Al-27 
# product               : Na-22 
# level energy          : - 
# MF-MT number          : 3 - 10 
# first author          : E.Z.Buthelezi 
# institute             : (3SAFITH): iThemba Laboratories, Somerset West 
# reference             : (J,ARI,64,915,2006) 
# year                  : 2006 
# facility              : (CYCLO): Cyclotron 
# git                   : https://github.com/IAEA-NDS/exfor_master/blob/main/exforall/O14/O1424.x4 
# nds                   : https://nds.iaea.org/EXFOR/O1424
#
#       E_in(MeV)       dE_in(MeV)            XS(B)           dXS(B)
      9.94600E+01      1.00000E+00      1.83000E-02      1.10000E-03
      9.51300E+01      1.00000E+00      1.86000E-02      1.10000E-03
      9.06600E+01      1.00000E+00      1.91000E-02      1.10000E-03
      8.66600E+01      1.00000E+00      1.94000E-02      1.20000E-03
      8.25100E+01      1.00000E+00      1.97000E-02      1.20000E-03
      7.82100E+01      1.00000E+00      2.02000E-02      1.30000E-03
      7.37300E+01      1.00000E+00      2.09000E-02      1.40000E-03
      6.97900E+01      1.00000E+00      2.02000E-02      1.40000E-03
      6.64700E+01      1.00000E+00      2.24000E-02      1.50000E-03
      6.47800E+01      1.00000E+00      2.35000E-02      1.30000E-03
      6.12800E+01      1.00000E+00      2.52000E-02      1.50000E-03
      5.76200E+01      1.00000E+00      2.82000E-02      1.80000E-03
      5.37800E+01      1.00000E+00      3.24000E-02      2.00000E-03
      4.97100E+01      1.00000E+00      3.78000E-02      2.40000E-03
      4.64400E+01      1.00000E+00      4.19000E-02      2.60000E-03
      4.29800E+01      1.00000E+00      4.34000E-02      2.70000E-03
      4.04400E+01      1.00000E+00      4.03000E-02      2.60000E-03
      3.85500E+01      1.00000E+00      3.29000E-02      1.90000E-03
      3.52200E+01      1.00000E+00      2.00000E-02      1.20000E-03
      3.16400E+01      1.00000E+00      5.40000E-03      3.40000E-04
      2.83300E+01      1.00000E+00      5.80000E-04      5.50000E-05
      2.47000E+01      1.00000E+00      8.60000E-06      1.10000E-06
