# entry-subent-pointer  : 33028-006-0 
# EXFOR reaction        : ['90-TH-229', ['N,F'], 'ELEM/MASS,IND,FY'] 
# incident energy       : 2.5300e-08 MeV 
# target                : Th-229 
# product               : - 
# level energy          : - 
# MF-MT number          : 8 - 454 
# first author          : H.Naik 
# institute             : (3INDTRM): Bhabha Atomic Research Centre (BARC), Trombay, Mumbai 
# reference             : (J,NP/A,612,143,1997) 
# year                  : 1997 
# facility              : (REAC): Reactor 
# git                   : https://github.com/IAEA-NDS/exfor_master/blob/main/exforall/330/33028.x4 
# nds                   : https://nds.iaea.org/EXFOR/33028
#
# Charge(No Dim.)    Mass(No Dim.)  Isomer(No Dim.)    Yield(%/fiss)   dYield(%/fiss)
             50.0            128.0                       5.00000E-05      1.00000E-05
             50.0            129.0                       7.10000E-04      1.40000E-04
             50.0            130.0                       1.17000E-03      6.00000E-05
             51.0            128.0                       2.63000E-04      2.50000E-05
             51.0            129.0                       4.86000E-04      6.30000E-05
             51.0            130.0                       1.38000E-03      8.00000E-05
             51.0            131.0                       3.69000E-03      9.00000E-04
             51.0            132.0                       7.94000E-03      2.20000E-04
             51.0            133.0                       8.93000E-03      9.60000E-04
             52.0            130.0                       4.90000E-05      0.00000E+00
             52.0            131.0                       1.55000E-03      7.00000E-05
             52.0            132.0                       4.14000E-03      1.70000E-04
             52.0            133.0                       2.33100E-02      2.21000E-03
             52.0            134.0                       4.88200E-02      2.46000E-03
             53.0            131.0                       4.20000E-05      0.00000E+00
             53.0            132.0                       3.40000E-04      5.00000E-05
             53.0            133.0                       2.48000E-03      4.00000E-04
             53.0            134.0                       5.70000E-03      4.90000E-04
             53.0            135.0                       3.54500E-02      2.76000E-03
             53.0            136.0                       3.66700E-02      5.73000E-03
             54.0            135.0                       4.08000E-03      2.30000E-04
             54.0            136.0                       2.78700E-02      7.80000E-04
             54.0            137.0                       3.55600E-02      3.16000E-03
             54.0            138.0                       5.29600E-02      3.22000E-03
             54.0            139.0                       4.97100E-02      7.22000E-03
             55.0            136.0                       1.86000E-04      9.60000E-06
             55.0            137.0                       2.31000E-03      1.50000E-04
             55.0            138.0                       4.67000E-03      4.40000E-04
             55.0            139.0                       3.06300E-02      2.16000E-03
             55.0            140.0                       4.61900E-02      4.45000E-03
             56.0            139.0                       6.68000E-03      9.00000E-04
             56.0            140.0                       2.42400E-02      5.20000E-04
             56.0            141.0                       4.20000E-02      8.40000E-04
             56.0            142.0                       4.65600E-02      2.50000E-04
             57.0            140.0                       4.11000E-04      8.00000E-05
             57.0            142.0                       4.31000E-03      5.30000E-04
             57.0            144.0                       2.33400E-02      4.91000E-03
             57.0            146.0                       9.41000E-03      0.00000E+00
             58.0            144.0                       1.63000E-03      0.00000E+00
             58.0            146.0                       1.03400E-02      8.30000E-04
