# entry-subent-pointer  : 11553-006-0 
# EXFOR reaction        : (18-AR-36(N,A)16-S-33,PAR,SIG) 
# incident energy       : 6.4100e+00 MeV - 8.6600e+00 MeV 
# target                : Ar-36 
# product               : S-33 
# level energy          : 1.9700e+00 MeV 
# MF-MT number          : 3 - 802 
# first author          : Davis 
# institute             : (1USARIC): Rice University, Houston, TX 
# reference             : (J,NP,55,643,64) 
# year                  : 1964 
# facility              : None 
# git                   : https://github.com/IAEA-NDS/exfor_master/blob/main/exforall/115/11553.x4 
# nds                   : https://nds.iaea.org/EXFOR/11553
#
#       E_in(MeV)         dE_in(MeV)        XS(B)             dXS(B)
        6.4100E+00        0.0000E+00        4.3200E-02        1.2960E-02
        6.5000E+00        0.0000E+00        4.6700E-02        1.4010E-02
        6.6000E+00        0.0000E+00        4.8200E-02        1.4460E-02
        6.6900E+00        0.0000E+00        4.0200E-02        1.2060E-02
        6.7800E+00        0.0000E+00        3.5000E-02        1.0500E-02
        6.8800E+00        0.0000E+00        3.5100E-02        1.0530E-02
        6.9800E+00        0.0000E+00        3.9700E-02        1.1910E-02
        7.0800E+00        0.0000E+00        3.0400E-02        9.1200E-03
        7.1700E+00        0.0000E+00        3.5900E-02        1.0770E-02
        7.2700E+00        0.0000E+00        4.1800E-02        1.2540E-02
        7.3700E+00        0.0000E+00        3.8500E-02        1.1550E-02
        7.4700E+00        0.0000E+00        3.4000E-02        1.0200E-02
        7.5300E+00        0.0000E+00        2.7800E-02        8.3400E-03
        7.6500E+00        0.0000E+00        3.3300E-02        9.9900E-03
        7.7400E+00        0.0000E+00        3.1800E-02        9.5400E-03
        7.8800E+00        0.0000E+00        3.3800E-02        1.0140E-02
        7.9800E+00        0.0000E+00        2.5000E-02        7.5000E-03
        8.0900E+00        0.0000E+00        2.5000E-02        7.5000E-03
        8.1800E+00        0.0000E+00        1.1000E-02        3.3000E-03
        8.2900E+00        0.0000E+00        1.8600E-02        5.5800E-03
        8.4100E+00        0.0000E+00        2.0800E-02        6.2400E-03
        8.5200E+00        0.0000E+00        1.8000E-02        5.4000E-03
        8.6600E+00        0.0000E+00        1.6000E-02        4.8000E-03
