# entry-subent-pointer  : G0051-005-0 
# EXFOR reaction        : ['90-TH-232', ['G,F'], 'MASS,CHN,FY,,BRA'] 
# incident energy       : 1.6000e+01 MeV 
# target                : Th-232 
# product               : 75.0 <= A <= 153.0 
# level energy          : - 
# MF-MT number          : 8 - 459 
# first author          : H.Naik 
# institute             : (3INDTRM): Bhabha Atomic Research Centre (BARC), Trombay, Mumbai 
# reference             : (J,EPJ/A,51,150,2015) 
# year                  : 2015 
# facility              : (LINAC): Linear accelerator 
# git                   : https://github.com/IAEA-NDS/exfor_master/blob/main/exforall/G00/G0051.x4 
# nds                   : https://nds.iaea.org/EXFOR/G0051
#
# Charge(No Dim.)    Mass(No Dim.)  Isomer(No Dim.)    Yield(%/fiss)   dYield(%/fiss)
                              75.0                       1.18000E-03      1.00000E-04
                              77.0                       4.85000E-03      3.90000E-04
                              77.0                       3.37000E-03      2.70000E-04
                              78.0                       7.51000E-03      8.70000E-04
                              84.0                       5.37300E-02      1.74000E-03
                              84.0                       5.28600E-02      9.20000E-04
                              85.0                       4.31900E-02      3.91000E-03
                              85.0                       4.71600E-02      2.83000E-03
                              87.0                       4.44400E-02      2.30000E-03
                              88.0                       4.67600E-02      3.73000E-03
                              89.0                       6.99000E-02      1.42000E-03
                              89.0                       7.12100E-02      7.60000E-04
                              91.0                       5.68300E-02      2.99000E-03
                              91.0                       6.16700E-02      3.64000E-03
                              92.0                       5.44400E-02      5.40000E-04
                              93.0                       3.79800E-02      2.99000E-03
                              94.0                       4.30200E-02      2.01000E-03
                              95.0                       4.67600E-02      3.76000E-03
                              97.0                       4.14300E-02      2.50000E-03
                              99.0                       2.59200E-02      1.30000E-03
                              99.0                       2.67800E-02      2.55000E-03
                             101.0                       1.27700E-02      9.20000E-04
                             103.0                       9.79000E-03      7.10000E-04
                             104.0                       6.41000E-03      5.40000E-04
                             105.0                       5.04000E-03      3.30000E-04
                             105.0                       5.27000E-03      3.80000E-04
                             107.0                       6.40000E-03      5.80000E-04
                             112.0                       7.55000E-03      6.50000E-04
                             113.0                       7.59000E-03      6.10000E-04
                             117.0                       7.83000E-03      6.20000E-04
                             127.0                       6.97000E-03      6.10000E-04
                             128.0                       7.16000E-03      4.70000E-04
                             129.0                       1.02900E-02      6.00000E-04
                             131.0                       1.27900E-02      1.80000E-04
                             131.0                       1.78200E-02      1.03000E-03
                             132.0                       2.70800E-02      2.84000E-03
                             133.0                       3.66700E-02      1.41000E-03
                             134.0                       4.18500E-02      2.02000E-03
                             134.0                       4.34400E-02      2.63000E-03
                             134.0                       4.62800E-02      3.70000E-03
                             134.0                       4.59000E-02      1.58000E-03
                             135.0                       4.68800E-02      4.60000E-03
                             135.0                       4.86300E-02      3.23000E-03
                             138.0                       6.68900E-02      3.37000E-03
                             138.0                       6.91200E-02      2.77000E-03
                             138.0                       6.15100E-02      2.66000E-03
                             139.0                       7.11200E-02      3.53000E-03
                             140.0                       7.66300E-02      3.81000E-03
                             141.0                       7.06700E-02      3.75000E-03
                             142.0                       6.00400E-02      3.15000E-03
                             143.0                       6.35100E-02      2.88000E-03
                             144.0                       6.47600E-02      3.26000E-03
                             146.0                       3.83000E-02      2.28000E-03
                             146.0                       3.49900E-02      2.12000E-03
                             147.0                       2.77600E-02      2.50000E-03
                             149.0                       1.51300E-02      1.03000E-03
                             149.0                       1.56200E-02      1.14000E-03
                             149.0                       1.77100E-02      1.58000E-03
                             153.0                       4.62000E-03      4.30000E-04
