# entry-subent-pointer  : A0273-005-0 
# EXFOR reaction        : (3-LI-7(T,P)3-LI-9,,SIG) 
# incident energy       : 3.4410e+00 MeV - 1.0120e+01 MeV 
# target                : Li-7 
# product               : Li-9 
# level energy          : - 
# MF-MT number          : 3 - 103 
# first author          : Abramovich 
# institute             : (4RUSEPA): Experimental Physics Institute , Sarov 
# reference             : (C,83MOSCOW,,362,1983) 
# year                  : 1983 
# facility              : (VDGT): Tandem van de Graaff 
# git                   : https://github.com/IAEA-NDS/exfor_master/blob/main/exforall/A02/A0273.x4 
# nds                   : https://nds.iaea.org/EXFOR/A0273
#
#       E_in(MeV)         dE_in(MeV)        XS(B)             dXS(B)
        3.4410E+00        0.0000E+00        0.0000E+00        0.0000E+00
        3.4490E+00        0.0000E+00        0.0000E+00        0.0000E+00
        3.4650E+00        0.0000E+00        0.0000E+00        0.0000E+00
        3.4800E+00        0.0000E+00        0.0000E+00        0.0000E+00
        3.4970E+00        0.0000E+00        0.0000E+00        0.0000E+00
        3.5110E+00        0.0000E+00        0.0000E+00        0.0000E+00
        3.5270E+00        0.0000E+00        0.0000E+00        0.0000E+00
        3.5430E+00        0.0000E+00        0.0000E+00        0.0000E+00
        3.5580E+00        0.0000E+00        9.0000E-05        0.0000E+00
        3.5760E+00        0.0000E+00        1.1000E-04        0.0000E+00
        3.5910E+00        0.0000E+00        1.8000E-04        0.0000E+00
        3.6090E+00        0.0000E+00        4.1000E-04        0.0000E+00
        3.6250E+00        0.0000E+00        5.4000E-04        0.0000E+00
        3.6410E+00        0.0000E+00        9.0000E-04        0.0000E+00
        3.6590E+00        0.0000E+00        8.1000E-04        0.0000E+00
        3.6760E+00        0.0000E+00        1.5400E-03        0.0000E+00
        3.6920E+00        0.0000E+00        2.4200E-03        0.0000E+00
        3.7090E+00        0.0000E+00        1.9500E-03        0.0000E+00
        3.7260E+00        0.0000E+00        2.2600E-03        0.0000E+00
        3.7440E+00        0.0000E+00        3.0300E-03        0.0000E+00
        3.7610E+00        0.0000E+00        3.3600E-03        0.0000E+00
        3.7790E+00        0.0000E+00        3.8500E-03        0.0000E+00
        3.7970E+00        0.0000E+00        4.1400E-03        0.0000E+00
        3.8160E+00        0.0000E+00        4.8400E-03        0.0000E+00
        3.8340E+00        0.0000E+00        5.2800E-03        0.0000E+00
        3.8500E+00        0.0000E+00        5.4500E-03        0.0000E+00
        3.8700E+00        0.0000E+00        6.0200E-03        0.0000E+00
        3.8890E+00        0.0000E+00        6.7000E-03        0.0000E+00
        3.9070E+00        0.0000E+00        7.0000E-03        0.0000E+00
        3.9250E+00        0.0000E+00        7.1000E-03        0.0000E+00
        3.9440E+00        0.0000E+00        7.7200E-03        0.0000E+00
        3.9630E+00        0.0000E+00        7.7700E-03        0.0000E+00
        3.9810E+00        0.0000E+00        8.5100E-03        0.0000E+00
        4.0160E+00        0.0000E+00        9.3900E-03        0.0000E+00
        4.0320E+00        0.0000E+00        9.7500E-03        0.0000E+00
        4.0510E+00        0.0000E+00        9.4200E-03        0.0000E+00
        4.0700E+00        0.0000E+00        1.0140E-02        0.0000E+00
        4.0860E+00        0.0000E+00        1.0720E-02        0.0000E+00
        4.1070E+00        0.0000E+00        1.1460E-02        0.0000E+00
        4.1270E+00        0.0000E+00        1.1000E-02        0.0000E+00
        4.1450E+00        0.0000E+00        1.1820E-02        0.0000E+00
        4.1450E+00        0.0000E+00        1.1780E-02        0.0000E+00
        4.1670E+00        0.0000E+00        1.2510E-02        0.0000E+00
        4.1870E+00        0.0000E+00        1.2990E-02        0.0000E+00
        4.2080E+00        0.0000E+00        1.2460E-02        0.0000E+00
        4.2250E+00        0.0000E+00        1.3520E-02        0.0000E+00
        4.2480E+00        0.0000E+00        1.4040E-02        0.0000E+00
        4.2700E+00        0.0000E+00        1.4170E-02        0.0000E+00
        4.2910E+00        0.0000E+00        1.4720E-02        0.0000E+00
        4.3100E+00        0.0000E+00        1.5280E-02        0.0000E+00
        4.3330E+00        0.0000E+00        1.4970E-02        0.0000E+00
        4.3570E+00        0.0000E+00        1.4780E-02        0.0000E+00
        4.3770E+00        0.0000E+00        1.5500E-02        0.0000E+00
        4.4010E+00        0.0000E+00        1.5970E-02        0.0000E+00
        4.4240E+00        0.0000E+00        1.6520E-02        0.0000E+00
        4.4450E+00        0.0000E+00        1.6610E-02        0.0000E+00
        4.4680E+00        0.0000E+00        1.4890E-02        0.0000E+00
        4.4910E+00        0.0000E+00        1.7390E-02        0.0000E+00
        4.5140E+00        0.0000E+00        1.7690E-02        0.0000E+00
        4.5380E+00        0.0000E+00        1.7840E-02        0.0000E+00
        4.5380E+00        0.0000E+00        1.9820E-02        0.0000E+00
        4.5380E+00        0.0000E+00        1.9920E-02        0.0000E+00
        4.5610E+00        0.0000E+00        2.0620E-02        0.0000E+00
        4.5610E+00        0.0000E+00        2.0850E-02        0.0000E+00
        4.5850E+00        0.0000E+00        2.0310E-02        0.0000E+00
        4.6100E+00        0.0000E+00        2.0390E-02        0.0000E+00
        4.6350E+00        0.0000E+00        2.1260E-02        0.0000E+00
        4.6590E+00        0.0000E+00        2.0880E-02        0.0000E+00
        4.6840E+00        0.0000E+00        2.2030E-02        0.0000E+00
        4.7070E+00        0.0000E+00        2.2040E-02        0.0000E+00
        4.7070E+00        0.0000E+00        2.1610E-02        0.0000E+00
        4.7320E+00        0.0000E+00        2.2420E-02        0.0000E+00
        4.7590E+00        0.0000E+00        2.1620E-02        0.0000E+00
        4.7830E+00        0.0000E+00        2.2430E-02        0.0000E+00
        4.8090E+00        0.0000E+00        2.2870E-02        0.0000E+00
        4.8340E+00        0.0000E+00        2.3460E-02        0.0000E+00
        4.8610E+00        0.0000E+00        2.3610E-02        0.0000E+00
        4.8860E+00        0.0000E+00        2.3800E-02        0.0000E+00
        4.9130E+00        0.0000E+00        2.4130E-02        0.0000E+00
        4.9400E+00        0.0000E+00        2.3940E-02        0.0000E+00
        4.9670E+00        0.0000E+00        2.4480E-02        0.0000E+00
        4.9940E+00        0.0000E+00        2.4860E-02        0.0000E+00
        5.0220E+00        0.0000E+00        2.4590E-02        0.0000E+00
        5.0470E+00        0.0000E+00        2.4500E-02        0.0000E+00
        5.0750E+00        0.0000E+00        2.5440E-02        0.0000E+00
        5.1030E+00        0.0000E+00        2.5180E-02        0.0000E+00
        5.1320E+00        0.0000E+00        2.5720E-02        0.0000E+00
        5.1590E+00        0.0000E+00        2.5190E-02        0.0000E+00
        5.3700E+00        0.0000E+00        2.7200E-02        0.0000E+00
        5.3700E+00        0.0000E+00        2.7100E-02        0.0000E+00
        5.3700E+00        0.0000E+00        2.6900E-02        0.0000E+00
        5.3940E+00        0.0000E+00        2.7000E-02        0.0000E+00
        5.4250E+00        0.0000E+00        2.7200E-02        0.0000E+00
        5.4530E+00        0.0000E+00        2.7060E-02        0.0000E+00
        5.4590E+00        0.0000E+00        2.6950E-02        0.0000E+00
        5.4650E+00        0.0000E+00        2.6750E-02        0.0000E+00
        5.4700E+00        0.0000E+00        2.7290E-02        0.0000E+00
        5.4760E+00        0.0000E+00        2.7230E-02        0.0000E+00
        5.4820E+00        0.0000E+00        2.6690E-02        0.0000E+00
        5.4880E+00        0.0000E+00        2.7050E-02        0.0000E+00
        5.4940E+00        0.0000E+00        2.7010E-02        0.0000E+00
        5.4990E+00        0.0000E+00        2.7170E-02        0.0000E+00
        5.5050E+00        0.0000E+00        2.6320E-02        0.0000E+00
        5.5110E+00        0.0000E+00        2.7020E-02        0.0000E+00
        5.5120E+00        0.0000E+00        2.5910E-02        0.0000E+00
        5.5140E+00        0.0000E+00        2.6570E-02        0.0000E+00
        5.5220E+00        0.0000E+00        2.6950E-02        0.0000E+00
        5.5270E+00        0.0000E+00        2.6770E-02        0.0000E+00
        5.5300E+00        0.0000E+00        2.6720E-02        0.0000E+00
        5.5320E+00        0.0000E+00        2.6680E-02        0.0000E+00
        5.5380E+00        0.0000E+00        2.6870E-02        0.0000E+00
        5.5450E+00        0.0000E+00        2.6830E-02        0.0000E+00
        5.5520E+00        0.0000E+00        2.6840E-02        0.0000E+00
        5.5580E+00        0.0000E+00        2.7000E-02        0.0000E+00
        5.5630E+00        0.0000E+00        2.6310E-02        0.0000E+00
        5.5690E+00        0.0000E+00        2.6560E-02        0.0000E+00
        5.5760E+00        0.0000E+00        2.6540E-02        0.0000E+00
        5.5810E+00        0.0000E+00        2.6350E-02        0.0000E+00
        5.5860E+00        0.0000E+00        2.6660E-02        0.0000E+00
        5.5860E+00        0.0000E+00        2.5730E-02        0.0000E+00
        5.5920E+00        0.0000E+00        2.5790E-02        0.0000E+00
        5.5980E+00        0.0000E+00        2.5780E-02        0.0000E+00
        5.6100E+00        0.0000E+00        2.5440E-02        0.0000E+00
        5.6110E+00        0.0000E+00        2.5410E-02        0.0000E+00
        5.6180E+00        0.0000E+00        2.5350E-02        0.0000E+00
        5.6230E+00        0.0000E+00        2.4830E-02        0.0000E+00
        5.6290E+00        0.0000E+00        2.4640E-02        0.0000E+00
        5.6360E+00        0.0000E+00        2.4620E-02        0.0000E+00
        5.6420E+00        0.0000E+00        2.4030E-02        0.0000E+00
        5.6490E+00        0.0000E+00        2.3840E-02        0.0000E+00
        5.6540E+00        0.0000E+00        2.3340E-02        0.0000E+00
        5.6610E+00        0.0000E+00        2.2860E-02        0.0000E+00
        5.6680E+00        0.0000E+00        2.2340E-02        0.0000E+00
        5.6730E+00        0.0000E+00        2.1350E-02        0.0000E+00
        5.6790E+00        0.0000E+00        2.5820E-02        0.0000E+00
        5.6790E+00        0.0000E+00        2.0970E-02        0.0000E+00
        5.6790E+00        0.0000E+00        2.0600E-02        0.0000E+00
        5.6790E+00        0.0000E+00        2.1500E-02        0.0000E+00
        5.6870E+00        0.0000E+00        2.1040E-02        0.0000E+00
        5.6920E+00        0.0000E+00        2.0300E-02        0.0000E+00
        5.6980E+00        0.0000E+00        2.0220E-02        0.0000E+00
        5.7060E+00        0.0000E+00        2.0050E-02        0.0000E+00
        5.7110E+00        0.0000E+00        1.9930E-02        0.0000E+00
        5.7180E+00        0.0000E+00        2.0240E-02        0.0000E+00
        5.7240E+00        0.0000E+00        2.0050E-02        0.0000E+00
        5.7300E+00        0.0000E+00        1.9960E-02        0.0000E+00
        5.7360E+00        0.0000E+00        2.0100E-02        0.0000E+00
        5.7450E+00        0.0000E+00        2.0020E-02        0.0000E+00
        5.7500E+00        0.0000E+00        2.0220E-02        0.0000E+00
        5.7560E+00        0.0000E+00        2.0550E-02        0.0000E+00
        5.7640E+00        0.0000E+00        2.0620E-02        0.0000E+00
        5.7700E+00        0.0000E+00        2.0660E-02        0.0000E+00
        5.7750E+00        0.0000E+00        2.0700E-02        0.0000E+00
        5.7830E+00        0.0000E+00        2.1050E-02        0.0000E+00
        5.7890E+00        0.0000E+00        2.1170E-02        0.0000E+00
        5.7950E+00        0.0000E+00        2.0740E-02        0.0000E+00
        5.8030E+00        0.0000E+00        2.1050E-02        0.0000E+00
        5.8090E+00        0.0000E+00        2.1090E-02        0.0000E+00
        5.8160E+00        0.0000E+00        2.1160E-02        0.0000E+00
        5.8250E+00        0.0000E+00        2.1360E-02        0.0000E+00
        5.8290E+00        0.0000E+00        2.1640E-02        0.0000E+00
        5.8360E+00        0.0000E+00        2.1460E-02        0.0000E+00
        5.8430E+00        0.0000E+00        2.1950E-02        0.0000E+00
        5.8490E+00        0.0000E+00        2.1830E-02        0.0000E+00
        5.8550E+00        0.0000E+00        2.1700E-02        0.0000E+00
        5.8600E+00        0.0000E+00        2.1430E-02        0.0000E+00
        5.8680E+00        0.0000E+00        2.1720E-02        0.0000E+00
        5.8750E+00        0.0000E+00        2.1620E-02        0.0000E+00
        5.8810E+00        0.0000E+00        2.1590E-02        0.0000E+00
        5.8880E+00        0.0000E+00        2.1980E-02        0.0000E+00
        5.8980E+00        0.0000E+00        2.2120E-02        0.0000E+00
        5.9150E+00        0.0000E+00        2.1640E-02        0.0000E+00
        5.9220E+00        0.0000E+00        2.1850E-02        0.0000E+00
        5.9280E+00        0.0000E+00        2.2070E-02        0.0000E+00
        5.9500E+00        0.0000E+00        2.2410E-02        0.0000E+00
        5.9830E+00        0.0000E+00        2.2560E-02        0.0000E+00
        5.9830E+00        0.0000E+00        2.3180E-02        0.0000E+00
        6.0160E+00        0.0000E+00        2.3680E-02        0.0000E+00
        6.0160E+00        0.0000E+00        2.4020E-02        0.0000E+00
        6.0510E+00        0.0000E+00        2.3590E-02        0.0000E+00
        6.0870E+00        0.0000E+00        2.4670E-02        0.0000E+00
        6.1200E+00        0.0000E+00        2.4550E-02        0.0000E+00
        6.1570E+00        0.0000E+00        2.4950E-02        0.0000E+00
        6.1940E+00        0.0000E+00        2.5640E-02        0.0000E+00
        6.2290E+00        0.0000E+00        2.6080E-02        0.0000E+00
        6.2290E+00        0.0000E+00        2.5030E-02        0.0000E+00
        6.2290E+00        0.0000E+00        2.5240E-02        0.0000E+00
        6.2670E+00        0.0000E+00        2.5560E-02        0.0000E+00
        6.3040E+00        0.0000E+00        2.5970E-02        0.0000E+00
        6.3400E+00        0.0000E+00        2.4800E-02        0.0000E+00
        6.3400E+00        0.0000E+00        2.5980E-02        0.0000E+00
        6.3770E+00        0.0000E+00        2.6670E-02        0.0000E+00
        6.4170E+00        0.0000E+00        2.7030E-02        0.0000E+00
        6.4550E+00        0.0000E+00        2.6790E-02        0.0000E+00
        6.4950E+00        0.0000E+00        2.6410E-02        0.0000E+00
        6.5330E+00        0.0000E+00        2.6570E-02        0.0000E+00
        6.5750E+00        0.0000E+00        2.6650E-02        0.0000E+00
        6.6130E+00        0.0000E+00        2.6000E-02        0.0000E+00
        6.6530E+00        0.0000E+00        2.6880E-02        0.0000E+00
        6.6930E+00        0.0000E+00        2.6500E-02        0.0000E+00
        6.7350E+00        0.0000E+00        2.6140E-02        0.0000E+00
        6.7770E+00        0.0000E+00        2.6950E-02        0.0000E+00
        6.8170E+00        0.0000E+00        2.6860E-02        0.0000E+00
        6.8620E+00        0.0000E+00        2.7360E-02        0.0000E+00
        6.9040E+00        0.0000E+00        2.7250E-02        0.0000E+00
        6.9470E+00        0.0000E+00        2.7580E-02        0.0000E+00
        7.0150E+00        0.0000E+00        2.6180E-02        0.0000E+00
        7.0150E+00        0.0000E+00        2.6000E-02        0.0000E+00
        7.0250E+00        0.0000E+00        2.6040E-02        0.0000E+00
        7.0530E+00        0.0000E+00        2.5890E-02        0.0000E+00
        7.0960E+00        0.0000E+00        2.6860E-02        0.0000E+00
        7.1380E+00        0.0000E+00        2.5960E-02        0.0000E+00
        7.1820E+00        0.0000E+00        2.6660E-02        0.0000E+00
        7.2240E+00        0.0000E+00        2.5750E-02        0.0000E+00
        7.2710E+00        0.0000E+00        2.6090E-02        0.0000E+00
        7.3170E+00        0.0000E+00        2.7280E-02        0.0000E+00
        7.3620E+00        0.0000E+00        2.6630E-02        0.0000E+00
        7.4120E+00        0.0000E+00        2.5930E-02        0.0000E+00
        7.4590E+00        0.0000E+00        2.6820E-02        0.0000E+00
        7.5080E+00        0.0000E+00        2.6320E-02        0.0000E+00
        7.5550E+00        0.0000E+00        2.8110E-02        0.0000E+00
        7.6080E+00        0.0000E+00        2.7420E-02        0.0000E+00
        7.6080E+00        0.0000E+00        2.8370E-02        0.0000E+00
        7.6510E+00        0.0000E+00        2.8200E-02        0.0000E+00
        7.7070E+00        0.0000E+00        2.9570E-02        0.0000E+00
        7.7070E+00        0.0000E+00        2.9410E-02        0.0000E+00
        7.7070E+00        0.0000E+00        2.9010E-02        0.0000E+00
        7.7590E+00        0.0000E+00        2.9950E-02        0.0000E+00
        7.8100E+00        0.0000E+00        3.0560E-02        0.0000E+00
        7.8620E+00        0.0000E+00        3.0350E-02        0.0000E+00
        7.9130E+00        0.0000E+00        2.8100E-02        0.0000E+00
        7.9640E+00        0.0000E+00        3.2360E-02        0.0000E+00
        8.0130E+00        0.0000E+00        3.2780E-02        0.0000E+00
        8.0130E+00        0.0000E+00        3.1900E-02        0.0000E+00
        8.0650E+00        0.0000E+00        3.4700E-02        0.0000E+00
        8.0650E+00        0.0000E+00        3.2650E-02        0.0000E+00
        8.1190E+00        0.0000E+00        3.3100E-02        0.0000E+00
        8.1190E+00        0.0000E+00        3.5290E-02        0.0000E+00
        8.1190E+00        0.0000E+00        3.2910E-02        0.0000E+00
        8.1720E+00        0.0000E+00        3.4380E-02        0.0000E+00
        8.1720E+00        0.0000E+00        3.3070E-02        0.0000E+00
        8.2270E+00        0.0000E+00        3.3840E-02        0.0000E+00
        8.2270E+00        0.0000E+00        3.4340E-02        0.0000E+00
        8.2830E+00        0.0000E+00        3.4140E-02        0.0000E+00
        8.2830E+00        0.0000E+00        3.5310E-02        0.0000E+00
        8.3390E+00        0.0000E+00        3.4470E-02        0.0000E+00
        8.3390E+00        0.0000E+00        3.4340E-02        0.0000E+00
        8.3950E+00        0.0000E+00        3.5020E-02        0.0000E+00
        8.3950E+00        0.0000E+00        3.4800E-02        0.0000E+00
        8.4480E+00        0.0000E+00        3.4460E-02        0.0000E+00
        8.4480E+00        0.0000E+00        3.4020E-02        0.0000E+00
        8.5090E+00        0.0000E+00        3.4910E-02        0.0000E+00
        8.5090E+00        0.0000E+00        3.2650E-02        0.0000E+00
        8.5670E+00        0.0000E+00        3.2730E-02        0.0000E+00
        8.5670E+00        0.0000E+00        3.2790E-02        0.0000E+00
        8.6240E+00        0.0000E+00        3.2220E-02        0.0000E+00
        8.6240E+00        0.0000E+00        3.4540E-02        0.0000E+00
        8.6810E+00        0.0000E+00        3.1200E-02        0.0000E+00
        8.6810E+00        0.0000E+00        3.0610E-02        0.0000E+00
        8.7400E+00        0.0000E+00        2.9700E-02        0.0000E+00
        8.8010E+00        0.0000E+00        2.9100E-02        0.0000E+00
        8.8010E+00        0.0000E+00        2.9320E-02        0.0000E+00
        8.8620E+00        0.0000E+00        2.9310E-02        0.0000E+00
        8.8620E+00        0.0000E+00        2.8080E-02        0.0000E+00
        8.9240E+00        0.0000E+00        2.7570E-02        0.0000E+00
        8.9240E+00        0.0000E+00        2.6430E-02        0.0000E+00
        8.9860E+00        0.0000E+00        2.7190E-02        0.0000E+00
        8.9860E+00        0.0000E+00        2.4300E-02        0.0000E+00
        9.0450E+00        0.0000E+00        2.5000E-02        0.0000E+00
        9.0450E+00        0.0000E+00        2.4630E-02        0.0000E+00
        9.1110E+00        0.0000E+00        2.3370E-02        0.0000E+00
        9.1110E+00        0.0000E+00        2.4000E-02        0.0000E+00
        9.1730E+00        0.0000E+00        2.1540E-02        0.0000E+00
        9.1730E+00        0.0000E+00        2.3150E-02        0.0000E+00
        9.2360E+00        0.0000E+00        2.1830E-02        0.0000E+00
        9.2360E+00        0.0000E+00        2.1940E-02        0.0000E+00
        9.2970E+00        0.0000E+00        2.1480E-02        0.0000E+00
        9.2970E+00        0.0000E+00        2.0210E-02        0.0000E+00
        9.3620E+00        0.0000E+00        1.9690E-02        0.0000E+00
        9.3620E+00        0.0000E+00        1.8780E-02        0.0000E+00
        9.4290E+00        0.0000E+00        1.8880E-02        0.0000E+00
        9.4290E+00        0.0000E+00        1.8910E-02        0.0000E+00
        9.4930E+00        0.0000E+00        1.8390E-02        0.0000E+00
        9.4930E+00        0.0000E+00        1.8480E-02        0.0000E+00
        9.5610E+00        0.0000E+00        1.8070E-02        0.0000E+00
        9.5610E+00        0.0000E+00        1.8140E-02        0.0000E+00
        9.6280E+00        0.0000E+00        1.7480E-02        0.0000E+00
        9.6280E+00        0.0000E+00        1.7220E-02        0.0000E+00
        9.6950E+00        0.0000E+00        1.5460E-02        0.0000E+00
        9.6950E+00        0.0000E+00        1.7460E-02        0.0000E+00
        9.7690E+00        0.0000E+00        1.7460E-02        0.0000E+00
        9.7690E+00        0.0000E+00        1.5530E-02        0.0000E+00
        9.8410E+00        0.0000E+00        1.5830E-02        0.0000E+00
        9.8410E+00        0.0000E+00        1.6650E-02        0.0000E+00
        9.9080E+00        0.0000E+00        1.4770E-02        0.0000E+00
        9.9080E+00        0.0000E+00        1.4520E-02        0.0000E+00
        9.9740E+00        0.0000E+00        1.5890E-02        0.0000E+00
        9.9740E+00        0.0000E+00        1.4790E-02        0.0000E+00
        1.0050E+01        0.0000E+00        1.3420E-02        0.0000E+00
        1.0050E+01        0.0000E+00        1.4380E-02        0.0000E+00
        1.0120E+01        0.0000E+00        1.5080E-02        0.0000E+00
