# entry-subent-pointer  : 10406-002-0 
# EXFOR reaction        : (94-PU-241(N,TOT),,SIG) 
# incident energy       : 8.5100e-09 MeV - 1.0325e-06 MeV 
# target                : Pu-241 
# product               : - 
# level energy          : - 
# MF-MT number          : 3 - 1 
# first author          : Young 
# institute             : (1USAMTR): Idaho Nuclear Corp., Idaho Falls, ID 
# reference             : (P,WASH-1093,60,196804) 
# year                  : 1968 
# facility              : (CHOPF): Fast chopper 
# git                   : https://github.com/IAEA-NDS/exfor_master/blob/main/exforall/104/10406.x4 
# nds                   : https://nds.iaea.org/EXFOR/10406
#
#       E_in(MeV)         dE_in(MeV)        XS(B)             dXS(B)
        8.5100E-09        0.0000E+00        2.4652E+03        0.0000E+00
        8.9400E-09        0.0000E+00        2.3806E+03        0.0000E+00
        9.3900E-09        0.0000E+00        2.3574E+03        0.0000E+00
        9.8600E-09        0.0000E+00        2.2980E+03        0.0000E+00
        1.0350E-08        0.0000E+00        2.1940E+03        0.0000E+00
        1.0850E-08        0.0000E+00        2.1987E+03        0.0000E+00
        1.1400E-08        0.0000E+00        2.1373E+03        0.0000E+00
        1.1970E-08        0.0000E+00        2.0907E+03        0.0000E+00
        1.2570E-08        0.0000E+00        2.0164E+03        0.0000E+00
        1.3200E-08        0.0000E+00        1.9677E+03        0.0000E+00
        1.3870E-08        0.0000E+00        1.9132E+03        0.0000E+00
        1.4560E-08        0.0000E+00        1.8803E+03        0.0000E+00
        1.5290E-08        0.0000E+00        1.8147E+03        0.0000E+00
        1.6040E-08        0.0000E+00        1.7745E+03        0.0000E+00
        1.6840E-08        0.0000E+00        1.7247E+03        0.0000E+00
        1.7690E-08        0.0000E+00        1.6803E+03        0.0000E+00
        1.8580E-08        0.0000E+00        1.6333E+03        0.0000E+00
        1.9510E-08        0.0000E+00        1.5995E+03        0.0000E+00
        2.0480E-08        0.0000E+00        1.5596E+03        0.0000E+00
        2.1490E-08        0.0000E+00        1.5275E+03        0.0000E+00
        2.2580E-08        0.0000E+00        1.4968E+03        0.0000E+00
        2.3710E-08        0.0000E+00        1.4518E+03        0.0000E+00
        2.4880E-08        0.0000E+00        1.4124E+03        0.0000E+00
        2.6140E-08        0.0000E+00        1.3663E+03        0.0000E+00
        2.7450E-08        0.0000E+00        1.3386E+03        0.0000E+00
        2.8810E-08        0.0000E+00        1.3045E+03        0.0000E+00
        3.0270E-08        0.0000E+00        1.2782E+03        0.0000E+00
        3.1780E-08        0.0000E+00        1.2344E+03        0.0000E+00
        3.3340E-08        0.0000E+00        1.2166E+03        0.0000E+00
        3.5020E-08        0.0000E+00        1.1811E+03        0.0000E+00
        3.6820E-08        0.0000E+00        1.1521E+03        0.0000E+00
        3.8690E-08        0.0000E+00        1.1202E+03        0.0000E+00
        4.0610E-08        0.0000E+00        1.0972E+03        0.0000E+00
        4.2580E-08        0.0000E+00        1.0739E+03        0.0000E+00
        4.4700E-08        0.0000E+00        1.0474E+03        0.0000E+00
        4.6980E-08        0.0000E+00        1.0230E+03        0.0000E+00
        4.9320E-08        0.0000E+00        1.0002E+03        0.0000E+00
        5.1700E-08        0.0000E+00        9.8067E+02        0.0000E+00
        5.4270E-08        0.0000E+00        9.5367E+02        0.0000E+00
        5.7030E-08        0.0000E+00        9.3534E+02        0.0000E+00
        5.9830E-08        0.0000E+00        9.2518E+02        0.0000E+00
        6.2870E-08        0.0000E+00        8.9963E+02        0.0000E+00
        6.6120E-08        0.0000E+00        8.8365E+02        0.0000E+00
        6.9440E-08        0.0000E+00        8.6864E+02        0.0000E+00
        7.2800E-08        0.0000E+00        8.5567E+02        0.0000E+00
        7.6410E-08        0.0000E+00        8.4568E+02        0.0000E+00
        8.0290E-08        0.0000E+00        8.2895E+02        0.0000E+00
        8.4470E-08        0.0000E+00        8.2903E+02        0.0000E+00
        8.8710E-08        0.0000E+00        8.1603E+02        0.0000E+00
        9.2930E-08        0.0000E+00        8.1619E+02        0.0000E+00
        9.7500E-08        0.0000E+00        8.2015E+02        0.0000E+00
        1.0237E-07        0.0000E+00        8.1591E+02        0.0000E+00
        1.0766E-07        0.0000E+00        8.1246E+02        0.0000E+00
        1.1291E-07        0.0000E+00        8.1359E+02        0.0000E+00
        1.1856E-07        0.0000E+00        8.3360E+02        0.0000E+00
        1.2468E-07        0.0000E+00        8.3630E+02        0.0000E+00
        1.3073E-07        0.0000E+00        8.5938E+02        0.0000E+00
        1.3724E-07        0.0000E+00        8.7661E+02        0.0000E+00
        1.4425E-07        0.0000E+00        9.0906E+02        0.0000E+00
        1.5181E-07        0.0000E+00        9.5767E+02        0.0000E+00
        1.5931E-07        0.0000E+00        1.0099E+03        0.0000E+00
        1.6651E-07        0.0000E+00        1.0743E+03        0.0000E+00
        1.7514E-07        0.0000E+00        1.1542E+03        0.0000E+00
        1.8446E-07        0.0000E+00        1.2638E+03        0.0000E+00
        1.9346E-07        0.0000E+00        1.3754E+03        0.0000E+00
        2.0333E-07        0.0000E+00        1.5274E+03        0.0000E+00
        2.1376E-07        0.0000E+00        1.7372E+03        0.0000E+00
        2.2401E-07        0.0000E+00        1.9662E+03        0.0000E+00
        2.3502E-07        0.0000E+00        2.1990E+03        0.0000E+00
        2.4672E-07        0.0000E+00        2.3783E+03        0.0000E+00
        2.5932E-07        0.0000E+00        2.4047E+03        0.0000E+00
        2.7307E-07        0.0000E+00        2.2059E+03        0.0000E+00
        2.8615E-07        0.0000E+00        1.8491E+03        0.0000E+00
        3.0020E-07        0.0000E+00        1.4318E+03        0.0000E+00
        3.1531E-07        0.0000E+00        1.0920E+03        0.0000E+00
        3.3159E-07        0.0000E+00        7.9060E+02        0.0000E+00
        3.4916E-07        0.0000E+00        5.8759E+02        0.0000E+00
        3.6591E-07        0.0000E+00        4.2359E+02        0.0000E+00
        3.8063E-07        0.0000E+00        3.6611E+02        0.0000E+00
        3.9972E-07        0.0000E+00        2.5435E+02        0.0000E+00
        4.2307E-07        0.0000E+00        2.2129E+02        0.0000E+00
        4.4549E-07        0.0000E+00        1.7099E+02        0.0000E+00
        4.6533E-07        0.0000E+00        1.3459E+02        0.0000E+00
        4.8777E-07        0.0000E+00        1.3324E+02        0.0000E+00
        5.1052E-07        0.0000E+00        8.5330E+01        0.0000E+00
        5.3635E-07        0.0000E+00        7.9550E+01        0.0000E+00
        5.6264E-07        0.0000E+00        5.7400E+01        0.0000E+00
        5.9258E-07        0.0000E+00        1.2010E+01        0.0000E+00
        6.2316E-07        0.0000E+00        7.1860E+01        0.0000E+00
        6.5178E-07        0.0000E+00        9.8530E+01        0.0000E+00
        6.8242E-07        0.0000E+00        4.9650E+01        0.0000E+00
        7.2032E-07        0.0000E+00        5.4980E+01        0.0000E+00
        7.5598E-07        0.0000E+00        7.3800E+01        0.0000E+00
        7.9435E-07        0.0000E+00        4.4810E+01        0.0000E+00
        8.3432E-07        0.0000E+00        3.4460E+01        0.0000E+00
        8.6910E-07        0.0000E+00        7.7620E+01        0.0000E+00
        9.0610E-07        0.0000E+00        2.0010E+01        0.0000E+00
        9.4552E-07        0.0000E+00        2.6470E+01        0.0000E+00
        9.8757E-07        0.0000E+00        1.0135E+02        0.0000E+00
        1.0325E-06        0.0000E+00        3.7930E+01        0.0000E+00
