# entry-subent-pointer  : 12528-012-0 
# EXFOR reaction        : (94-PU-241(N,TOT),,SIG) 
# incident energy       : 2.4700e-08 MeV - 1.0330e-07 MeV 
# target                : Pu-241 
# product               : - 
# level energy          : - 
# MF-MT number          : 3 - 1 
# first author          : Craig 
# institute             : (1CANCRC): A.E.C.L., Chalk River, Ontario 
# reference             : (J,CJP,42,2384,1964) 
# year                  : 1964 
# facility              : (CHOPF): Fast chopper 
# git                   : https://github.com/IAEA-NDS/exfor_master/blob/main/exforall/125/12528.x4 
# nds                   : https://nds.iaea.org/EXFOR/12528
#
#       E_in(MeV)         dE_in(MeV)        XS(B)             dXS(B)
        2.4700E-08        0.0000E+00        1.2480E+03        0.0000E+00
        2.4890E-08        0.0000E+00        1.2480E+03        0.0000E+00
        2.5080E-08        0.0000E+00        1.2380E+03        0.0000E+00
        2.5280E-08        0.0000E+00        1.2480E+03        0.0000E+00
        2.5470E-08        0.0000E+00        1.2330E+03        0.0000E+00
        2.5670E-08        0.0000E+00        1.2450E+03        0.0000E+00
        2.5880E-08        0.0000E+00        1.1530E+03        0.0000E+00
        2.6080E-08        0.0000E+00        1.2200E+03        0.0000E+00
        2.6290E-08        0.0000E+00        1.1810E+03        0.0000E+00
        2.6500E-08        0.0000E+00        1.2690E+03        0.0000E+00
        2.6710E-08        0.0000E+00        1.1980E+03        0.0000E+00
        2.6920E-08        0.0000E+00        1.2080E+03        0.0000E+00
        2.7140E-08        0.0000E+00        1.2110E+03        0.0000E+00
        2.7360E-08        0.0000E+00        1.1780E+03        0.0000E+00
        2.7580E-08        0.0000E+00        1.1840E+03        0.0000E+00
        2.7810E-08        0.0000E+00        1.1890E+03        0.0000E+00
        2.8040E-08        0.0000E+00        1.2080E+03        0.0000E+00
        2.8270E-08        0.0000E+00        1.1970E+03        0.0000E+00
        2.8500E-08        0.0000E+00        1.1860E+03        0.0000E+00
        2.8740E-08        0.0000E+00        1.1690E+03        0.0000E+00
        2.8980E-08        0.0000E+00        1.1520E+03        0.0000E+00
        2.9220E-08        0.0000E+00        1.1790E+03        0.0000E+00
        2.9470E-08        0.0000E+00        1.1600E+03        0.0000E+00
        2.9720E-08        0.0000E+00        1.1060E+03        0.0000E+00
        2.9970E-08        0.0000E+00        1.1110E+03        0.0000E+00
        3.0220E-08        0.0000E+00        1.1380E+03        0.0000E+00
        3.0480E-08        0.0000E+00        1.1030E+03        0.0000E+00
        3.0750E-08        0.0000E+00        1.1200E+03        0.0000E+00
        3.1010E-08        0.0000E+00        1.1320E+03        0.0000E+00
        3.1280E-08        0.0000E+00        1.1500E+03        0.0000E+00
        3.1550E-08        0.0000E+00        1.1110E+03        0.0000E+00
        3.1830E-08        0.0000E+00        1.0870E+03        0.0000E+00
        3.2110E-08        0.0000E+00        1.1110E+03        0.0000E+00
        3.2390E-08        0.0000E+00        1.1160E+03        0.0000E+00
        3.2680E-08        0.0000E+00        1.0860E+03        0.0000E+00
        3.2970E-08        0.0000E+00        1.0950E+03        0.0000E+00
        3.3260E-08        0.0000E+00        1.0670E+03        0.0000E+00
        3.3560E-08        0.0000E+00        1.0890E+03        0.0000E+00
        3.3860E-08        0.0000E+00        1.0550E+03        0.0000E+00
        3.4170E-08        0.0000E+00        1.0530E+03        0.0000E+00
        3.4480E-08        0.0000E+00        1.0200E+03        0.0000E+00
        3.4800E-08        0.0000E+00        1.0180E+03        0.0000E+00
        3.5120E-08        0.0000E+00        1.0300E+03        0.0000E+00
        3.5440E-08        0.0000E+00        1.0330E+03        0.0000E+00
        3.5770E-08        0.0000E+00        1.0120E+03        0.0000E+00
        3.6100E-08        0.0000E+00        1.0190E+03        0.0000E+00
        3.6440E-08        0.0000E+00        9.9800E+02        0.0000E+00
        3.6780E-08        0.0000E+00        9.9900E+02        0.0000E+00
        3.7130E-08        0.0000E+00        1.0040E+03        0.0000E+00
        3.7480E-08        0.0000E+00        1.0270E+03        0.0000E+00
        3.7840E-08        0.0000E+00        1.0250E+03        0.0000E+00
        3.8200E-08        0.0000E+00        9.7900E+02        0.0000E+00
        3.8570E-08        0.0000E+00        9.8500E+02        0.0000E+00
        3.8950E-08        0.0000E+00        1.0400E+03        0.0000E+00
        3.9320E-08        0.0000E+00        9.6300E+02        0.0000E+00
        3.9710E-08        0.0000E+00        9.9900E+02        0.0000E+00
        4.0100E-08        0.0000E+00        9.9500E+02        0.0000E+00
        4.0490E-08        0.0000E+00        9.8100E+02        0.0000E+00
        4.0900E-08        0.0000E+00        9.6200E+02        0.0000E+00
        4.1300E-08        0.0000E+00        9.8700E+02        0.0000E+00
        4.1720E-08        0.0000E+00        9.6400E+02        0.0000E+00
        4.2140E-08        0.0000E+00        9.6100E+02        0.0000E+00
        4.2560E-08        0.0000E+00        9.6600E+02        0.0000E+00
        4.3000E-08        0.0000E+00        9.5600E+02        0.0000E+00
        4.3430E-08        0.0000E+00        9.2400E+02        0.0000E+00
        4.3880E-08        0.0000E+00        9.3000E+02        0.0000E+00
        4.4330E-08        0.0000E+00        9.4200E+02        0.0000E+00
        4.4790E-08        0.0000E+00        9.5900E+02        0.0000E+00
        4.5260E-08        0.0000E+00        9.3200E+02        0.0000E+00
        4.5740E-08        0.0000E+00        9.0600E+02        0.0000E+00
        4.6220E-08        0.0000E+00        9.0700E+02        0.0000E+00
        4.6710E-08        0.0000E+00        9.1700E+02        0.0000E+00
        4.7210E-08        0.0000E+00        8.7800E+02        0.0000E+00
        4.7710E-08        0.0000E+00        8.9000E+02        0.0000E+00
        4.8230E-08        0.0000E+00        9.0200E+02        0.0000E+00
        4.8750E-08        0.0000E+00        8.7100E+02        0.0000E+00
        4.9280E-08        0.0000E+00        9.1200E+02        0.0000E+00
        4.9820E-08        0.0000E+00        8.9400E+02        0.0000E+00
        5.0370E-08        0.0000E+00        8.4700E+02        0.0000E+00
        5.0920E-08        0.0000E+00        8.7400E+02        0.0000E+00
        5.1490E-08        0.0000E+00        8.9700E+02        0.0000E+00
        5.2070E-08        0.0000E+00        8.7300E+02        0.0000E+00
        5.2650E-08        0.0000E+00        8.6100E+02        0.0000E+00
        5.3250E-08        0.0000E+00        8.7700E+02        0.0000E+00
        5.3850E-08        0.0000E+00        8.7100E+02        0.0000E+00
        5.4470E-08        0.0000E+00        8.2400E+02        0.0000E+00
        5.5100E-08        0.0000E+00        8.5500E+02        0.0000E+00
        5.5740E-08        0.0000E+00        8.5500E+02        0.0000E+00
        5.6390E-08        0.0000E+00        8.3900E+02        0.0000E+00
        5.7050E-08        0.0000E+00        8.3500E+02        0.0000E+00
        5.7720E-08        0.0000E+00        8.3800E+02        0.0000E+00
        5.8400E-08        0.0000E+00        8.4600E+02        0.0000E+00
        5.9100E-08        0.0000E+00        8.2800E+02        0.0000E+00
        5.9810E-08        0.0000E+00        8.1800E+02        0.0000E+00
        6.0530E-08        0.0000E+00        7.9700E+02        0.0000E+00
        6.1270E-08        0.0000E+00        8.0900E+02        0.0000E+00
        6.2010E-08        0.0000E+00        8.0000E+02        0.0000E+00
        6.2780E-08        0.0000E+00        8.0100E+02        0.0000E+00
        6.3550E-08        0.0000E+00        8.2700E+02        0.0000E+00
        6.4340E-08        0.0000E+00        8.0000E+02        0.0000E+00
        6.5150E-08        0.0000E+00        8.0900E+02        0.0000E+00
        6.5970E-08        0.0000E+00        8.0300E+02        0.0000E+00
        6.6810E-08        0.0000E+00        7.9900E+02        0.0000E+00
        6.7660E-08        0.0000E+00        7.7400E+02        0.0000E+00
        6.8530E-08        0.0000E+00        7.8900E+02        0.0000E+00
        6.9410E-08        0.0000E+00        7.8800E+02        0.0000E+00
        7.0320E-08        0.0000E+00        7.9000E+02        0.0000E+00
        7.1240E-08        0.0000E+00        7.7500E+02        0.0000E+00
        7.2180E-08        0.0000E+00        7.6800E+02        0.0000E+00
        7.3140E-08        0.0000E+00        7.7600E+02        0.0000E+00
        7.4110E-08        0.0000E+00        7.7700E+02        0.0000E+00
        7.5110E-08        0.0000E+00        7.6100E+02        0.0000E+00
        7.6130E-08        0.0000E+00        7.5800E+02        0.0000E+00
        7.7160E-08        0.0000E+00        7.7800E+02        0.0000E+00
        7.8220E-08        0.0000E+00        7.4400E+02        0.0000E+00
        7.9310E-08        0.0000E+00        7.6100E+02        0.0000E+00
        8.0410E-08        0.0000E+00        7.5500E+02        0.0000E+00
        8.1540E-08        0.0000E+00        7.4700E+02        0.0000E+00
        8.2690E-08        0.0000E+00        7.4400E+02        0.0000E+00
        8.3860E-08        0.0000E+00        7.3900E+02        0.0000E+00
        8.5060E-08        0.0000E+00        7.3300E+02        0.0000E+00
        8.6290E-08        0.0000E+00        7.4500E+02        0.0000E+00
        8.7540E-08        0.0000E+00        7.4100E+02        0.0000E+00
        8.8820E-08        0.0000E+00        7.2400E+02        0.0000E+00
        9.0130E-08        0.0000E+00        7.3300E+02        0.0000E+00
        9.1470E-08        0.0000E+00        7.4600E+02        0.0000E+00
        9.2840E-08        0.0000E+00        7.2800E+02        0.0000E+00
        9.4240E-08        0.0000E+00        7.3800E+02        0.0000E+00
        9.5670E-08        0.0000E+00        7.3600E+02        0.0000E+00
        9.7130E-08        0.0000E+00        7.2200E+02        0.0000E+00
        9.8630E-08        0.0000E+00        7.2600E+02        0.0000E+00
        1.0020E-07        0.0000E+00        7.1800E+02        0.0000E+00
        1.0170E-07        0.0000E+00        7.2900E+02        0.0000E+00
        1.0330E-07        0.0000E+00        7.2800E+02        0.0000E+00
