# entry-subent-pointer  : 10406-003-0 
# EXFOR reaction        : (94-PU-241(N,TOT),,SIG) 
# incident energy       : 1.0400e-09 MeV - 1.8024e-06 MeV 
# target                : Pu-241 
# product               : - 
# level energy          : - 
# MF-MT number          : 3 - 1 
# first author          : Young 
# institute             : (1USAMTR): Idaho Nuclear Corp., Idaho Falls, ID 
# reference             : (P,WASH-1093,60,196804) 
# year                  : 1968 
# facility              : (CHOPF): Fast chopper 
# git                   : https://github.com/IAEA-NDS/exfor_master/blob/main/exforall/104/10406.x4 
# nds                   : https://nds.iaea.org/EXFOR/10406
#
#       E_in(MeV)         dE_in(MeV)        XS(B)             dXS(B)
        1.0400E-09        0.0000E+00        6.3882E+03        0.0000E+00
        1.1000E-09        0.0000E+00        6.4141E+03        0.0000E+00
        1.1500E-09        0.0000E+00        6.4944E+03        0.0000E+00
        1.2100E-09        0.0000E+00        6.7420E+03        0.0000E+00
        1.2700E-09        0.0000E+00        6.4611E+03        0.0000E+00
        1.3300E-09        0.0000E+00        6.2972E+03        0.0000E+00
        1.4000E-09        0.0000E+00        6.2014E+03        0.0000E+00
        1.4700E-09        0.0000E+00        5.9517E+03        0.0000E+00
        1.5400E-09        0.0000E+00        5.8489E+03        0.0000E+00
        1.6200E-09        0.0000E+00        5.7784E+03        0.0000E+00
        1.7000E-09        0.0000E+00        5.7677E+03        0.0000E+00
        1.7800E-09        0.0000E+00        5.4866E+03        0.0000E+00
        1.8700E-09        0.0000E+00        5.4269E+03        0.0000E+00
        1.9700E-09        0.0000E+00        5.2466E+03        0.0000E+00
        2.0600E-09        0.0000E+00        5.1304E+03        0.0000E+00
        2.1700E-09        0.0000E+00        5.0401E+03        0.0000E+00
        2.2800E-09        0.0000E+00        4.8430E+03        0.0000E+00
        2.4000E-09        0.0000E+00        4.7745E+03        0.0000E+00
        2.5200E-09        0.0000E+00        4.6415E+03        0.0000E+00
        2.6400E-09        0.0000E+00        4.5121E+03        0.0000E+00
        2.7700E-09        0.0000E+00        4.4309E+03        0.0000E+00
        2.9100E-09        0.0000E+00        4.3016E+03        0.0000E+00
        3.0600E-09        0.0000E+00        4.2228E+03        0.0000E+00
        3.2100E-09        0.0000E+00        4.1087E+03        0.0000E+00
        3.3600E-09        0.0000E+00        4.0242E+03        0.0000E+00
        3.5400E-09        0.0000E+00        3.9363E+03        0.0000E+00
        3.7100E-09        0.0000E+00        3.8084E+03        0.0000E+00
        3.9000E-09        0.0000E+00        3.7179E+03        0.0000E+00
        4.0900E-09        0.0000E+00        3.6369E+03        0.0000E+00
        4.3000E-09        0.0000E+00        3.5671E+03        0.0000E+00
        4.5200E-09        0.0000E+00        3.4808E+03        0.0000E+00
        4.7400E-09        0.0000E+00        3.4037E+03        0.0000E+00
        4.9900E-09        0.0000E+00        3.3183E+03        0.0000E+00
        5.2300E-09        0.0000E+00        3.2125E+03        0.0000E+00
        5.4700E-09        0.0000E+00        3.1271E+03        0.0000E+00
        5.7600E-09        0.0000E+00        3.0626E+03        0.0000E+00
        6.0600E-09        0.0000E+00        2.9710E+03        0.0000E+00
        6.3600E-09        0.0000E+00        2.8913E+03        0.0000E+00
        6.6700E-09        0.0000E+00        2.8296E+03        0.0000E+00
        7.0000E-09        0.0000E+00        2.7648E+03        0.0000E+00
        7.3500E-09        0.0000E+00        2.6855E+03        0.0000E+00
        7.7000E-09        0.0000E+00        2.6320E+03        0.0000E+00
        8.1000E-09        0.0000E+00        2.5711E+03        0.0000E+00
        8.6000E-09        0.0000E+00        2.5104E+03        0.0000E+00
        9.0400E-09        0.0000E+00        2.2953E+03        0.0000E+00
        9.5000E-09        0.0000E+00        2.3703E+03        0.0000E+00
        9.9600E-09        0.0000E+00        2.2957E+03        0.0000E+00
        1.0470E-08        0.0000E+00        2.2785E+03        0.0000E+00
        1.1010E-08        0.0000E+00        2.1921E+03        0.0000E+00
        1.1570E-08        0.0000E+00        2.1561E+03        0.0000E+00
        1.2140E-08        0.0000E+00        2.0723E+03        0.0000E+00
        1.2750E-08        0.0000E+00        2.0136E+03        0.0000E+00
        1.3380E-08        0.0000E+00        1.9767E+03        0.0000E+00
        1.4020E-08        0.0000E+00        1.9260E+03        0.0000E+00
        1.4740E-08        0.0000E+00        1.8585E+03        0.0000E+00
        1.5480E-08        0.0000E+00        1.8159E+03        0.0000E+00
        1.6230E-08        0.0000E+00        1.7894E+03        0.0000E+00
        1.7040E-08        0.0000E+00        1.7323E+03        0.0000E+00
        1.7910E-08        0.0000E+00        1.6936E+03        0.0000E+00
        1.8840E-08        0.0000E+00        1.6529E+03        0.0000E+00
        1.9800E-08        0.0000E+00        1.5943E+03        0.0000E+00
        2.0750E-08        0.0000E+00        1.5509E+03        0.0000E+00
        2.1780E-08        0.0000E+00        1.5119E+03        0.0000E+00
        2.2890E-08        0.0000E+00        1.4791E+03        0.0000E+00
        2.4000E-08        0.0000E+00        1.4447E+03        0.0000E+00
        2.5200E-08        0.0000E+00        1.4030E+03        0.0000E+00
        2.6480E-08        0.0000E+00        1.3583E+03        0.0000E+00
        2.7770E-08        0.0000E+00        1.3317E+03        0.0000E+00
        2.9150E-08        0.0000E+00        1.2960E+03        0.0000E+00
        3.0640E-08        0.0000E+00        1.2795E+03        0.0000E+00
        3.2110E-08        0.0000E+00        1.2311E+03        0.0000E+00
        3.3700E-08        0.0000E+00        1.1995E+03        0.0000E+00
        3.5400E-08        0.0000E+00        1.1879E+03        0.0000E+00
        3.7240E-08        0.0000E+00        1.1521E+03        0.0000E+00
        3.9050E-08        0.0000E+00        1.1371E+03        0.0000E+00
        4.1000E-08        0.0000E+00        1.1043E+03        0.0000E+00
        4.3100E-08        0.0000E+00        1.0746E+03        0.0000E+00
        4.5150E-08        0.0000E+00        1.0521E+03        0.0000E+00
        4.7350E-08        0.0000E+00        1.0383E+03        0.0000E+00
        4.9710E-08        0.0000E+00        1.0064E+03        0.0000E+00
        5.2260E-08        0.0000E+00        9.8529E+02        0.0000E+00
        5.5010E-08        0.0000E+00        9.5384E+02        0.0000E+00
        5.7670E-08        0.0000E+00        9.5317E+02        0.0000E+00
        6.0530E-08        0.0000E+00        9.1780E+02        0.0000E+00
        6.3610E-08        0.0000E+00        9.0508E+02        0.0000E+00
        6.6930E-08        0.0000E+00        8.9459E+02        0.0000E+00
        7.0520E-08        0.0000E+00        8.6892E+02        0.0000E+00
        7.3950E-08        0.0000E+00        8.4712E+02        0.0000E+00
        7.7650E-08        0.0000E+00        8.5229E+02        0.0000E+00
        8.1620E-08        0.0000E+00        8.4415E+02        0.0000E+00
        8.5360E-08        0.0000E+00        8.4508E+02        0.0000E+00
        8.9360E-08        0.0000E+00        8.2416E+02        0.0000E+00
        9.4280E-08        0.0000E+00        8.2471E+02        0.0000E+00
        9.8930E-08        0.0000E+00        8.2974E+02        0.0000E+00
        1.0394E-07        0.0000E+00        8.1056E+02        0.0000E+00
        1.0933E-07        0.0000E+00        8.1674E+02        0.0000E+00
        1.1429E-07        0.0000E+00        8.4107E+02        0.0000E+00
        1.1960E-07        0.0000E+00        8.5383E+02        0.0000E+00
        1.2529E-07        0.0000E+00        8.6707E+02        0.0000E+00
        1.3245E-07        0.0000E+00        8.8046E+02        0.0000E+00
        1.3909E-07        0.0000E+00        9.1118E+02        0.0000E+00
        1.4501E-07        0.0000E+00        9.1429E+02        0.0000E+00
        1.5264E-07        0.0000E+00        9.7225E+02        0.0000E+00
        1.6087E-07        0.0000E+00        1.0338E+03        0.0000E+00
        1.6980E-07        0.0000E+00        1.1131E+03        0.0000E+00
        1.7781E-07        0.0000E+00        1.2021E+03        0.0000E+00
        1.8641E-07        0.0000E+00        1.3137E+03        0.0000E+00
        1.9564E-07        0.0000E+00        1.4318E+03        0.0000E+00
        2.0558E-07        0.0000E+00        1.6290E+03        0.0000E+00
        2.1630E-07        0.0000E+00        1.8371E+03        0.0000E+00
        2.2549E-07        0.0000E+00        2.0653E+03        0.0000E+00
        2.3782E-07        0.0000E+00        2.2506E+03        0.0000E+00
        2.5119E-07        0.0000E+00        2.4072E+03        0.0000E+00
        2.6272E-07        0.0000E+00        2.3216E+03        0.0000E+00
        2.7505E-07        0.0000E+00        2.1751E+03        0.0000E+00
        2.8828E-07        0.0000E+00        1.7629E+03        0.0000E+00
        3.0249E-07        0.0000E+00        1.3225E+03        0.0000E+00
        3.1777E-07        0.0000E+00        1.0089E+03        0.0000E+00
        3.3425E-07        0.0000E+00        7.4957E+02        0.0000E+00
        3.5203E-07        0.0000E+00        5.3759E+02        0.0000E+00
        3.7128E-07        0.0000E+00        3.5811E+02        0.0000E+00
        3.8676E-07        0.0000E+00        2.6121E+02        0.0000E+00
        4.0324E-07        0.0000E+00        1.9646E+02        0.0000E+00
        4.2690E-07        0.0000E+00        1.9978E+02        0.0000E+00
        4.5271E-07        0.0000E+00        1.8972E+02        0.0000E+00
        4.7363E-07        0.0000E+00        1.1550E+02        0.0000E+00
        4.9604E-07        0.0000E+00        1.3677E+02        0.0000E+00
        5.2007E-07        0.0000E+00        9.6010E+01        0.0000E+00
        5.4590E-07        0.0000E+00        7.5350E+01        0.0000E+00
        5.7369E-07        0.0000E+00        5.7340E+01        0.0000E+00
        6.0367E-07        0.0000E+00        2.7520E+01        0.0000E+00
        6.3606E-07        0.0000E+00       -1.1657E+02        0.0000E+00
        6.5912E-07        0.0000E+00       -2.5470E+01        0.0000E+00
        6.9614E-07        0.0000E+00        7.1040E+01        0.0000E+00
        7.3636E-07        0.0000E+00        1.1563E+02        0.0000E+00
        7.6515E-07        0.0000E+00        1.1630E+02        0.0000E+00
        7.9566E-07        0.0000E+00        3.1560E+01        0.0000E+00
        8.4496E-07        0.0000E+00        5.1150E+01        0.0000E+00
        8.9899E-07        0.0000E+00       -5.4340E+01        0.0000E+00
        9.3794E-07        0.0000E+00        6.9320E+01        0.0000E+00
        9.7947E-07        0.0000E+00        1.3750E+01        0.0000E+00
        1.0238E-06        0.0000E+00        5.7330E+01        0.0000E+00
        1.0713E-06        0.0000E+00       -7.2900E+01        0.0000E+00
        1.1221E-06        0.0000E+00        6.7120E+01        0.0000E+00
        1.1766E-06        0.0000E+00        1.1113E+02        0.0000E+00
        1.2352E-06        0.0000E+00        1.2350E+01        0.0000E+00
        1.2983E-06        0.0000E+00       -8.7100E+00        0.0000E+00
        1.3663E-06        0.0000E+00       -2.8200E+01        0.0000E+00
        1.4399E-06        0.0000E+00       -1.5390E+01        0.0000E+00
        1.5195E-06        0.0000E+00        9.0600E+00        0.0000E+00
        1.6059E-06        0.0000E+00       -3.2490E+01        0.0000E+00
        1.6999E-06        0.0000E+00       -1.5160E+01        0.0000E+00
        1.8024E-06        0.0000E+00       -4.1600E+00        0.0000E+00
