# entry-subent-pointer  : O1291-005-0 
# EXFOR reaction        : (46-PD-104(P,G)47-AG-105,,SIG,,SFC) 
# incident energy       : 2.7570e+00 MeV - 7.1220e+00 MeV 
# target                : Pd-104 
# product               : Ag-105 
# level energy          : - 
# MF-MT number          : 3 - 102 
# first author          : Spyrou 
# institute             : (2GRCATH): NCSR Demokritos, Aghia Paraskevi, Athens 
# reference             : (J,PR/C,77,065801,2008) 
# year                  : 2008 
# facility              : (DYNAM): Dynamitron 
# git                   : https://github.com/IAEA-NDS/exfor_master/blob/main/exforall/O12/O1291.x4 
# nds                   : https://nds.iaea.org/EXFOR/O1291
#
#       E_in(MeV)         dE_in(MeV)        XS(B)             dXS(B)
        2.7570E+00        0.0000E+00        8.8600E+07        1.2970E+07
        2.9560E+00        0.0000E+00        1.0880E+08        1.8110E+07
        3.1540E+00        0.0000E+00        8.7410E+07        1.2490E+07
        3.3530E+00        0.0000E+00        1.0640E+08        1.2270E+07
        3.5520E+00        0.0000E+00        8.7750E+07        1.0700E+07
        3.7500E+00        0.0000E+00        8.8850E+07        1.1850E+07
        3.9490E+00        0.0000E+00        7.8790E+07        1.0280E+07
        4.1470E+00        0.0000E+00        7.0360E+07        8.2780E+06
        4.3460E+00        0.0000E+00        6.9820E+07        9.0500E+06
        4.5440E+00        0.0000E+00        6.6880E+07        8.3600E+06
        4.7420E+00        0.0000E+00        6.1190E+07        5.5620E+06
        5.0400E+00        0.0000E+00        5.0540E+07        6.3180E+06
        5.1390E+00        0.0000E+00        3.1770E+07        5.2950E+06
        5.3370E+00        0.0000E+00        1.2090E+07        1.5110E+06
        5.5360E+00        0.0000E+00        5.4830E+06        6.8500E+05
        5.7340E+00        0.0000E+00        3.4470E+06        5.0700E+05
        5.9320E+00        0.0000E+00        2.8190E+06        3.8100E+05
        6.3290E+00        0.0000E+00        1.4800E+06        1.7900E+05
        6.7260E+00        0.0000E+00        8.8700E+05        1.1100E+05
        7.1220E+00        0.0000E+00        5.1900E+05        9.0000E+04
