# entry-subent-pointer  : L0122-004-0 
# EXFOR reaction        : (8-O-16(G,ABS),,SIG,,BRS) 
# incident energy       : 1.0200e+01 MeV - 3.4700e+01 MeV 
# target                : O-16 
# product               : - 
# level energy          : - 
# MF-MT number          : 3 - 27 
# first author          : Wyckoff 
# institute             : (1USANIS): National Institute of Standards & Techn., Gaithersburg, MD 
# reference             : (J,PR,137,B576,1965) 
# year                  : 1965 
# facility              : (LINAC): Linear accelerator 
# git                   : https://github.com/IAEA-NDS/exfor_master/blob/main/exforall/L01/L0122.x4 
# nds                   : https://nds.iaea.org/EXFOR/L0122
#
#       E_in(MeV)         dE_in(MeV)        XS(B)             dXS(B)
        1.0200E+01        0.0000E+00       -5.7400E-04        0.0000E+00
        1.0700E+01        0.0000E+00       -3.8000E-04        0.0000E+00
        1.1100E+01        0.0000E+00       -5.7100E-04        0.0000E+00
        1.1700E+01        0.0000E+00        5.3400E-04        0.0000E+00
        1.2200E+01        0.0000E+00       -1.2800E-03        0.0000E+00
        1.2700E+01        0.0000E+00        3.4600E-04        0.0000E+00
        1.3300E+01        0.0000E+00        2.7400E-03        0.0000E+00
        1.3700E+01        0.0000E+00        9.2500E-04        0.0000E+00
        1.4200E+01        0.0000E+00       -1.2700E-04        0.0000E+00
        1.4600E+01        0.0000E+00        1.2100E-03        0.0000E+00
        1.5100E+01        0.0000E+00        1.2100E-03        0.0000E+00
        1.5700E+01        0.0000E+00       -1.2100E-04        0.0000E+00
        1.6100E+01        0.0000E+00        6.4700E-04        0.0000E+00
        1.6600E+01        0.0000E+00        1.4600E-03        0.0000E+00
        1.7100E+01        0.0000E+00        2.1800E-03        0.0000E+00
        1.7600E+01        0.0000E+00        3.5700E-03        0.0000E+00
        1.8200E+01        0.0000E+00        1.2700E-03        0.0000E+00
        1.8600E+01        0.0000E+00        1.8000E-03        0.0000E+00
        1.9200E+01        0.0000E+00        3.7700E-03        0.0000E+00
        1.9700E+01        0.0000E+00        1.4200E-03        0.0000E+00
        2.0100E+01        0.0000E+00        2.3400E-03        0.0000E+00
        2.0600E+01        0.0000E+00        4.0200E-03        0.0000E+00
        2.1100E+01        0.0000E+00        6.9400E-03        0.0000E+00
        2.1600E+01        0.0000E+00        1.2700E-02        0.0000E+00
        2.2200E+01        0.0000E+00        2.3900E-02        0.0000E+00
        2.2600E+01        0.0000E+00        2.4000E-02        0.0000E+00
        2.3100E+01        0.0000E+00        2.2000E-02        0.0000E+00
        2.3600E+01        0.0000E+00        2.1200E-02        0.0000E+00
        2.4100E+01        0.0000E+00        2.1600E-02        0.0000E+00
        2.4600E+01        0.0000E+00        2.1600E-02        0.0000E+00
        2.5100E+01        0.0000E+00        1.7800E-02        0.0000E+00
        2.5600E+01        0.0000E+00        1.8900E-02        0.0000E+00
        2.6100E+01        0.0000E+00        1.5600E-02        0.0000E+00
        2.6600E+01        0.0000E+00        1.2500E-02        0.0000E+00
        2.7100E+01        0.0000E+00        1.2200E-02        0.0000E+00
        2.7600E+01        0.0000E+00        8.7400E-03        0.0000E+00
        2.8000E+01        0.0000E+00        7.5900E-03        0.0000E+00
        2.8600E+01        0.0000E+00        7.6400E-03        0.0000E+00
        2.9100E+01        0.0000E+00        7.1700E-03        0.0000E+00
        2.9600E+01        0.0000E+00        7.3600E-03        0.0000E+00
        3.0100E+01        0.0000E+00        5.8800E-03        0.0000E+00
        3.0600E+01        0.0000E+00        7.4600E-03        0.0000E+00
        3.1100E+01        0.0000E+00        6.7400E-03        0.0000E+00
        3.1700E+01        0.0000E+00        5.1600E-03        0.0000E+00
        3.2100E+01        0.0000E+00        7.4700E-03        0.0000E+00
        3.2600E+01        0.0000E+00        5.8900E-03        0.0000E+00
        3.3100E+01        0.0000E+00        5.0200E-03        0.0000E+00
        3.3500E+01        0.0000E+00        4.0700E-03        0.0000E+00
        3.4100E+01        0.0000E+00        5.3200E-03        0.0000E+00
        3.4700E+01        0.0000E+00        4.7400E-03        0.0000E+00
