# entry-subent-pointer  : 10238-035-1 
# EXFOR reaction        : (26-FE-56(N,P)25-MN-56,,SIG) 
# incident energy       : 4.0780e+00 MeV - 5.9390e+00 MeV 
# target                : Fe-56 
# product               : Mn-56 
# level energy          : - 
# MF-MT number          : 3 - 103 
# first author          : Smith 
# institute             : (1USAANL): Argonne National Laboratory, Argonne, IL 
# reference             : (J,NSE,58,314,197511) 
# year                  : 1975 
# facility              : (DYNAM): Dynamitron 
# git                   : https://github.com/IAEA-NDS/exfor_master/blob/main/exforall/102/10238.x4 
# nds                   : https://nds.iaea.org/EXFOR/10238
#
#       E_in(MeV)         dE_in(MeV)        XS(B)             dXS(B)
        4.0780E+00        1.2400E-02        1.9390E-05        3.1790E-06
        4.1780E+00        1.2600E-01        1.4820E-05        4.0230E-06
        4.2680E+00        1.2800E-01        3.9230E-05        3.8910E-06
        4.3670E+00        1.2800E-01        8.2700E-05        5.7880E-06
        4.4790E+00        1.3000E-01        1.2240E-04        8.7550E-06
        4.5940E+00        1.3200E-01        2.1570E-04        1.3680E-05
        4.6800E+00        1.3400E-01        3.5910E-04        2.1000E-05
        4.7810E+00        1.3400E-01        6.1700E-04        3.3520E-05
        4.7980E+00        1.6200E-01        7.1420E-04        3.9790E-05
        4.8820E+00        1.3600E-01        8.0890E-04        4.3890E-05
        4.8960E+00        1.6400E-01        6.9470E-04        3.7610E-05
        4.9810E+00        1.3800E-01        8.3820E-04        5.3170E-05
        5.0390E+00        1.6400E-01        1.0820E-03        5.9510E-05
        5.1400E+00        1.6600E-01        1.5230E-03        8.3620E-05
        5.2560E+00        1.3200E-01        2.1480E-03        1.1470E-04
        5.3560E+00        1.3200E-01        2.8670E-03        1.4490E-04
        5.4560E+00        1.3400E-01        4.1820E-03        2.1370E-04
        5.5540E+00        1.3400E-01        6.0880E-03        3.1350E-04
        5.6560E+00        1.3600E-01        7.9670E-03        4.0490E-04
        5.7560E+00        1.3800E-01        6.8000E-03        3.5470E-04
        5.8570E+00        1.3800E-01        1.3290E-02        6.7990E-04
        5.9390E+00        1.7200E-01        1.2320E-02        6.3180E-04
