# entry-subent-pointer  : F0294-004-0 
# EXFOR reaction        : ['5-B-11', ['P,INL'], '5-B-11,PAR,SIG'] 
# incident energy       : 5.5720e+00 MeV - 7.9920e+00 MeV 
# target                : B-11 
# product               : B-11 
# level energy          : 4.4450e+00 MeV 
# MF-MT number          : 3 - 602 
# first author          : F.Borchers 
# institute             : (2GERBOC): Ruhr-Universitaet Bochum 
# reference             : (J,NP/A,405,141,1983) 
# year                  : 1983 
# facility              : (DYNAM): Dynamitron 
# git                   : https://github.com/IAEA-NDS/exfor_master/blob/main/exforall/F02/F0294.x4 
# nds                   : https://nds.iaea.org/EXFOR/F0294
#
#       E_in(MeV)       dE_in(MeV)            XS(B)           dXS(B)
      5.57200E+00      1.50000E-02      3.44000E-02      0.00000E+00
      5.68100E+00      1.50000E-02      3.41000E-02      0.00000E+00
      5.77400E+00      1.50000E-02      3.26000E-02      0.00000E+00
      5.88300E+00      1.50000E-02      2.98000E-02      0.00000E+00
      5.99400E+00      1.50000E-02      3.60000E-02      0.00000E+00
      6.04300E+00      1.50000E-02      4.09000E-02      0.00000E+00
      6.09100E+00      1.50000E-02      4.46000E-02      0.00000E+00
      6.13600E+00      1.50000E-02      4.07000E-02      0.00000E+00
      6.19900E+00      1.50000E-02      3.93000E-02      0.00000E+00
      6.31000E+00      1.50000E-02      4.41000E-02      0.00000E+00
      6.38900E+00      1.50000E-02      4.65000E-02      0.00000E+00
      6.48400E+00      1.50000E-02      5.26000E-02      0.00000E+00
      6.57900E+00      1.50000E-02      5.63000E-02      0.00000E+00
      6.68900E+00      1.50000E-02      5.85000E-02      0.00000E+00
      6.78400E+00      1.50000E-02      6.09000E-02      2.50000E-03
      6.88000E+00      1.50000E-02      6.83000E-02      0.00000E+00
      6.99600E+00      1.50000E-02      8.71000E-02      2.60000E-03
      7.09300E+00      1.50000E-02      9.45000E-02      2.50000E-03
      7.18200E+00      1.50000E-02      8.29000E-02      0.00000E+00
      7.19700E+00      1.50000E-02      8.16000E-02      0.00000E+00
      7.30100E+00      1.50000E-02      6.48000E-02      0.00000E+00
      7.37600E+00      1.50000E-02      5.69000E-02      0.00000E+00
      7.49100E+00      1.50000E-02      7.20000E-02      0.00000E+00
      7.50400E+00      1.50000E-02      6.68000E-02      0.00000E+00
      7.54200E+00      1.50000E-02      8.33000E-02      0.00000E+00
      7.59000E+00      1.50000E-02      8.70000E-02      0.00000E+00
      7.64500E+00      1.50000E-02      1.11100E-01      0.00000E+00
      7.69600E+00      1.50000E-02      1.22400E-01      0.00000E+00
      7.77500E+00      1.50000E-02      8.15000E-02      0.00000E+00
      7.83200E+00      1.50000E-02      6.48000E-02      0.00000E+00
      7.89600E+00      1.50000E-02      6.97000E-02      0.00000E+00
      7.94200E+00      1.50000E-02      6.84000E-02      0.00000E+00
      7.99200E+00      1.50000E-02      7.72000E-02      0.00000E+00
