# entry-subent-pointer  : 23175-002-0 
# EXFOR reaction        : ['98-CF-252', ['0,F'], 'MASS,PRE,FY'] 
# incident energy       : 0.0000e+00 MeV 
# target                : Cf-252 
# product               : 63.51 <= A <= 187.46 
# level energy          : - 
# MF-MT number          : 8 - 460 
# first author          : C.Budtz-Jorgensen 
# institute             : (2ZZZGEL): EC Joint Research Centre (EC-JRC), Geel 
# reference             : (J,NP/A,490,307,1988) 
# year                  : 1988 
# facility              : None 
# git                   : https://github.com/IAEA-NDS/exfor_master/blob/main/exforall/231/23175.x4 
# nds                   : https://nds.iaea.org/EXFOR/23175
#
# Charge(No Dim.)    Mass(No Dim.)  Isomer(No Dim.)    Yield(%/fiss)   dYield(%/fiss)
                             63.51                       9.94600E-07      0.00000E+00
                             64.91                       1.39600E-06      0.00000E+00
                             66.08                       1.48700E-06      0.00000E+00
                             66.79                       2.80900E-06      0.00000E+00
                             67.95                       2.32100E-06      0.00000E+00
                             69.11                       2.80800E-06      0.00000E+00
                             69.81                       3.62100E-06      0.00000E+00
                             70.98                       4.11200E-06      0.00000E+00
                             71.92                       5.19100E-06      0.00000E+00
                             73.31                       5.08100E-06      0.00000E+00
                             74.01                       6.98200E-06      0.00000E+00
                             74.95                       9.00400E-06      0.00000E+00
                             75.89                       1.23700E-05      0.00000E+00
                             76.82                       1.89000E-05      0.00000E+00
                              78.0                       3.14400E-05      0.00000E+00
                             78.71                       5.69200E-05      0.00000E+00
                             79.88                       9.87600E-05      0.00000E+00
                             80.82                       1.50900E-04      0.00000E+00
                             81.76                       2.16300E-04      0.00000E+00
                             82.93                       3.37600E-04      0.00000E+00
                             83.87                       4.84000E-04      0.00000E+00
                              84.8                       6.79400E-04      0.00000E+00
                             85.97                       9.53600E-04      0.00000E+00
                             87.14                       1.28300E-03      0.00000E+00
                             87.84                       1.68900E-03      0.00000E+00
                             89.01                       2.22500E-03      0.00000E+00
                             89.95                       2.87000E-03      0.00000E+00
                             90.88                       3.62300E-03      0.00000E+00
                             91.58                       4.57400E-03      0.00000E+00
                             92.52                       5.77500E-03      0.00000E+00
                             93.69                       6.69800E-03      0.00000E+00
                             94.62                       8.27800E-03      0.00000E+00
                             95.79                       1.02320E-02      0.00000E+00
                             96.72                       1.21210E-02      0.00000E+00
                             97.65                       1.49820E-02      0.00000E+00
                             98.82                       1.77470E-02      0.00000E+00
                             99.76                       2.14750E-02      0.00000E+00
                            100.69                       2.54410E-02      0.00000E+00
                            101.86                       3.01380E-02      0.00000E+00
                            102.79                       3.57030E-02      0.00000E+00
                            103.96                       3.88560E-02      0.00000E+00
                            104.66                       4.50670E-02      0.00000E+00
                            106.05                       4.90440E-02      0.00000E+00
                            107.22                       5.56870E-02      0.00000E+00
                            109.08                       5.56700E-02      0.00000E+00
                            111.17                       5.22210E-02      0.00000E+00
                             112.8                       4.79620E-02      0.00000E+00
                            113.96                       4.31290E-02      0.00000E+00
                            115.12                       3.87840E-02      0.00000E+00
                            116.28                       3.41440E-02      0.00000E+00
                            116.98                       3.00620E-02      0.00000E+00
                             117.9                       2.70340E-02      0.00000E+00
                            119.06                       2.33010E-02      0.00000E+00
                            119.76                       1.88470E-02      0.00000E+00
                            120.92                       1.73120E-02      0.00000E+00
                            122.07                       1.20700E-02      0.00000E+00
                            122.76                       8.24000E-03      0.00000E+00
                            123.69                       5.86800E-03      0.00000E+00
                            124.61                       4.09200E-03      0.00000E+00
                            125.77                       3.67900E-03      0.00000E+00
                            127.17                       4.09000E-03      0.00000E+00
                            127.87                       5.62100E-03      0.00000E+00
                            129.04                       7.72400E-03      0.00000E+00
                            129.98                       1.13120E-02      0.00000E+00
                            130.68                       1.55450E-02      0.00000E+00
                            132.08                       1.96240E-02      0.00000E+00
                            132.55                       2.27610E-02      0.00000E+00
                            133.72                       2.63980E-02      0.00000E+00
                            134.88                       2.99730E-02      0.00000E+00
                            135.58                       3.47640E-02      0.00000E+00
                            136.75                       3.78340E-02      0.00000E+00
                            137.91                       4.20570E-02      0.00000E+00
                            138.84                       4.67530E-02      0.00000E+00
                            140.71                       5.19650E-02      0.00000E+00
                            142.57                       5.65470E-02      0.00000E+00
                            143.73                       5.65360E-02      0.00000E+00
                            144.89                       5.41790E-02      0.00000E+00
                            146.05                       5.08300E-02      0.00000E+00
                            146.75                       4.57120E-02      0.00000E+00
                            148.14                       4.11050E-02      0.00000E+00
                            149.07                       3.54300E-02      0.00000E+00
                            150.23                       2.98970E-02      0.00000E+00
                            151.16                       2.57690E-02      0.00000E+00
                            151.85                       2.12900E-02      0.00000E+00
                            153.01                       1.79650E-02      0.00000E+00
                            153.94                       1.45310E-02      0.00000E+00
                             155.1                       1.22620E-02      0.00000E+00
                            155.56                       1.01310E-02      0.00000E+00
                            156.72                       8.36900E-03      0.00000E+00
                            157.87                       6.62700E-03      0.00000E+00
                            158.57                       5.59200E-03      0.00000E+00
                            159.73                       4.52300E-03      0.00000E+00
                            160.88                       3.58100E-03      0.00000E+00
                            161.81                       2.83600E-03      0.00000E+00
                            162.97                       2.19800E-03      0.00000E+00
                            163.89                       1.70400E-03      0.00000E+00
                            164.82                       1.37800E-03      0.00000E+00
                            165.51                       9.81900E-04      0.00000E+00
                             166.9                       7.29500E-04      0.00000E+00
                            167.59                       5.19600E-04      0.00000E+00
                            168.98                       3.39900E-04      0.00000E+00
                            169.67                       2.42100E-04      0.00000E+00
                            171.05                       1.55000E-04      0.00000E+00
                            171.51                       9.93500E-05      0.00000E+00
                            172.66                       5.84600E-05      0.00000E+00
                            173.82                       3.44000E-05      0.00000E+00
                            174.74                       2.29900E-05      0.00000E+00
                             175.2                       1.94000E-05      0.00000E+00
                            175.89                       1.32400E-05      0.00000E+00
                            177.28                       9.04200E-06      0.00000E+00
                            177.97                       7.16000E-06      0.00000E+00
                            179.59                       5.09900E-06      0.00000E+00
                            180.52                       4.30300E-06      0.00000E+00
                            181.68                       3.70800E-06      0.00000E+00
                             182.6                       2.87500E-06      0.00000E+00
                            183.53                       2.47800E-06      0.00000E+00
                            184.23                       2.75500E-06      0.00000E+00
                            185.61                       1.52100E-06      0.00000E+00
                            186.77                       1.28300E-06      0.00000E+00
                            187.46                       9.95200E-07      0.00000E+00
