# entry-subent-pointer  : 11745-008-0 
# EXFOR reaction        : ['67-HO-165', ['N,TOT'], ',,SIG'] 
# incident energy       : 2.5900e-08 MeV - 5.0000e-07 MeV 
# target                : Ho-165 
# product               : - 
# level energy          : - 
# MF-MT number          : 3 - 1 
# first author          : S.Bernstein 
# institute             : (1USAORL): Oak Ridge National Laboratory, Oak Ridge, TN 
# reference             : (J,PR,87,487,52) 
# year                  : 1952 
# facility              : (SPECC): Crystal spectrometer 
# git                   : https://github.com/IAEA-NDS/exfor_master/blob/main/exforall/117/11745.x4 
# nds                   : https://nds.iaea.org/EXFOR/11745
#
#       E_in(MeV)       dE_in(MeV)            XS(B)           dXS(B)
      2.59000E-08      0.00000E+00      9.25000E+01      0.00000E+00
      2.81000E-08      0.00000E+00      8.95000E+01      0.00000E+00
      3.12000E-08      0.00000E+00      8.65000E+01      0.00000E+00
      3.52000E-08      0.00000E+00      8.25000E+01      0.00000E+00
      3.60000E-08      0.00000E+00      8.12500E+01      0.00000E+00
      4.02500E-08      0.00000E+00      7.65000E+01      0.00000E+00
      4.42500E-08      0.00000E+00      7.45000E+01      0.00000E+00
      4.97500E-08      0.00000E+00      6.85000E+01      0.00000E+00
      5.50000E-08      0.00000E+00      6.70000E+01      0.00000E+00
      5.85000E-08      0.00000E+00      6.62500E+01      0.00000E+00
      7.00000E-08      0.00000E+00      5.92500E+01      0.00000E+00
      7.15000E-08      0.00000E+00      6.09000E+01      0.00000E+00
      8.40000E-08      0.00000E+00      5.38000E+01      0.00000E+00
      9.95000E-08      0.00000E+00      5.00000E+01      0.00000E+00
      1.13000E-07      0.00000E+00      4.82500E+01      0.00000E+00
      1.39000E-07      0.00000E+00      4.32500E+01      0.00000E+00
      1.41000E-07      0.00000E+00      4.21000E+01      0.00000E+00
      2.00000E-07      0.00000E+00      3.77500E+01      0.00000E+00
      3.00000E-07      0.00000E+00      2.94000E+01      0.00000E+00
      5.00000E-07      0.00000E+00      2.80000E+01      0.00000E+00
