# entry-subent-pointer  : 13991-003-0 
# EXFOR reaction        : (92-U-238(N,INL)92-U-238,PAR,SIG) 
# incident energy       : 9.3800e-01 MeV - 1.9600e+00 MeV 
# target                : U-238 
# product               : U-238 
# level energy          : 9.2680e-01 MeV 
# MF-MT number          : 3 - 59 
# first author          : Chan 
# institute             : (1USALTI): University of Massachusetts at Lowell, MA 
# reference             : (J,PR/C,26,841,1982) 
# year                  : 1982 
# facility              : (VDG): Van de Graaff 
# git                   : https://github.com/IAEA-NDS/exfor_master/blob/main/exforall/139/13991.x4 
# nds                   : https://nds.iaea.org/EXFOR/13991
#
#       E_in(MeV)         dE_in(MeV)        XS(B)             dXS(B)
        9.6500E-01        0.0000E+00        1.4400E-02        0.0000E+00
        1.0300E+00        0.0000E+00        4.1900E-02        0.0000E+00
        1.0900E+00        0.0000E+00        4.9900E-02        0.0000E+00
        1.1400E+00        0.0000E+00        6.4400E-02        0.0000E+00
        1.1700E+00        0.0000E+00        6.6000E-02        0.0000E+00
        1.2200E+00        0.0000E+00        6.8100E-02        0.0000E+00
        1.2600E+00        0.0000E+00        6.0700E-02        0.0000E+00
        1.3700E+00        0.0000E+00        6.4200E-02        0.0000E+00
        1.4000E+00        0.0000E+00        5.8000E-02        0.0000E+00
        1.4700E+00        0.0000E+00        5.3100E-02        0.0000E+00
        1.5000E+00        0.0000E+00        6.4700E-02        0.0000E+00
        1.5300E+00        0.0000E+00        4.4400E-02        0.0000E+00
        1.5700E+00        0.0000E+00        4.3200E-02        0.0000E+00
        1.6300E+00        0.0000E+00        3.4600E-02        0.0000E+00
        1.6700E+00        0.0000E+00        4.9700E-02        0.0000E+00
        1.7600E+00        0.0000E+00        3.1700E-02        0.0000E+00
        1.7800E+00        0.0000E+00        3.9800E-02        0.0000E+00
        1.8300E+00        0.0000E+00        3.4400E-02        0.0000E+00
        1.8700E+00        0.0000E+00        2.0800E-02        0.0000E+00
        1.9600E+00        0.0000E+00        2.4000E-02        0.0000E+00
        9.3800E-01        0.0000E+00        1.9400E-02        0.0000E+00
        9.6100E-01        0.0000E+00        2.9500E-02        0.0000E+00
        1.0300E+00        0.0000E+00        9.5400E-02        0.0000E+00
        1.0600E+00        0.0000E+00        1.1800E-01        0.0000E+00
        1.1400E+00        0.0000E+00        1.4500E-01        0.0000E+00
        1.1600E+00        0.0000E+00        1.6200E-01        0.0000E+00
        1.2200E+00        0.0000E+00        1.6200E-01        0.0000E+00
        1.2700E+00        0.0000E+00        1.7900E-01        0.0000E+00
        1.3700E+00        0.0000E+00        1.7900E-01        0.0000E+00
        1.4000E+00        0.0000E+00        1.7000E-01        0.0000E+00
        1.4700E+00        0.0000E+00        1.6500E-01        0.0000E+00
        1.5000E+00        0.0000E+00        1.6600E-01        0.0000E+00
        1.5400E+00        0.0000E+00        1.7000E-01        0.0000E+00
        1.5600E+00        0.0000E+00        1.6400E-01        0.0000E+00
        1.6200E+00        0.0000E+00        1.6100E-01        0.0000E+00
        1.6600E+00        0.0000E+00        1.5100E-01        0.0000E+00
        1.7500E+00        0.0000E+00        1.3900E-01        0.0000E+00
        1.7800E+00        0.0000E+00        1.3900E-01        0.0000E+00
        1.8200E+00        0.0000E+00        1.3900E-01        0.0000E+00
        1.8800E+00        0.0000E+00        1.0000E-01        0.0000E+00
        1.9600E+00        0.0000E+00        1.1800E-01        0.0000E+00
        1.0400E+00        0.0000E+00        2.3600E-02        0.0000E+00
        1.0700E+00        0.0000E+00        3.1900E-02        0.0000E+00
        1.1400E+00        0.0000E+00        4.2100E-02        0.0000E+00
        1.1700E+00        0.0000E+00        4.6700E-02        0.0000E+00
        1.2100E+00        0.0000E+00        5.5800E-02        0.0000E+00
        1.2700E+00        0.0000E+00        7.4000E-02        0.0000E+00
        1.3700E+00        0.0000E+00        7.4700E-02        0.0000E+00
        1.4000E+00        0.0000E+00        6.6800E-02        0.0000E+00
        1.4800E+00        0.0000E+00        5.7700E-02        0.0000E+00
        1.5000E+00        0.0000E+00        7.4100E-02        0.0000E+00
        1.5300E+00        0.0000E+00        6.3200E-02        0.0000E+00
        1.5500E+00        0.0000E+00        6.0300E-02        0.0000E+00
        1.6300E+00        0.0000E+00        5.9800E-02        0.0000E+00
        1.6600E+00        0.0000E+00        5.6000E-02        0.0000E+00
        1.7500E+00        0.0000E+00        5.2000E-02        0.0000E+00
        1.7700E+00        0.0000E+00        5.7100E-02        0.0000E+00
        1.8200E+00        0.0000E+00        6.8500E-02        0.0000E+00
        1.8800E+00        0.0000E+00        4.3100E-02        0.0000E+00
        1.9400E+00        0.0000E+00        4.6200E-02        0.0000E+00
        1.0500E+00        0.0000E+00        3.7300E-02        0.0000E+00
        1.0700E+00        0.0000E+00        5.9700E-02        0.0000E+00
        1.1500E+00        0.0000E+00        7.3600E-02        0.0000E+00
        1.1700E+00        0.0000E+00        8.8500E-02        0.0000E+00
        1.2400E+00        0.0000E+00        8.4900E-02        0.0000E+00
        1.2800E+00        0.0000E+00        1.0500E-01        0.0000E+00
        1.3800E+00        0.0000E+00        1.0200E-01        0.0000E+00
        1.4100E+00        0.0000E+00        1.1000E-01        0.0000E+00
        1.4700E+00        0.0000E+00        9.1800E-02        0.0000E+00
        1.5000E+00        0.0000E+00        1.0200E-01        0.0000E+00
        1.5300E+00        0.0000E+00        9.8900E-02        0.0000E+00
        1.5600E+00        0.0000E+00        1.0100E-01        0.0000E+00
        1.6300E+00        0.0000E+00        9.1900E-02        0.0000E+00
        1.6800E+00        0.0000E+00        8.6000E-02        0.0000E+00
        1.7600E+00        0.0000E+00        8.7700E-02        0.0000E+00
        1.7800E+00        0.0000E+00        9.1300E-02        0.0000E+00
        1.8300E+00        0.0000E+00        8.7900E-02        0.0000E+00
        1.8700E+00        0.0000E+00        6.5800E-02        0.0000E+00
        1.9500E+00        0.0000E+00        7.0700E-02        0.0000E+00
