# entry-subent-pointer  : 33155-005-0 
# EXFOR reaction        : ['94-PU-240', ['N,F'], 'MASS,CHN,FY,,EPI'] 
# incident energy       : 5.0000e-07 MeV 
# target                : Pu-240 
# product               : 83.0 <= A <= 157.0 
# level energy          : - 
# MF-MT number          : 8 - 459 
# first author          : H.Naik 
# institute             : (3INDTRM): Bhabha Atomic Research Centre (BARC), Trombay, Mumbai 
# reference             : (J,EPJ/A,57,112,2021) 
# year                  : 2021 
# facility              : (REAC): Reactor 
# git                   : https://github.com/IAEA-NDS/exfor_master/blob/main/exforall/331/33155.x4 
# nds                   : https://nds.iaea.org/EXFOR/33155
#
# Charge(No Dim.)    Mass(No Dim.)  Isomer(No Dim.)    Yield(%/fiss)   dYield(%/fiss)
                              83.0                       2.36700E-03      2.48000E-04
                              84.0                       3.81500E-03      4.50000E-04
                              84.0                       3.86600E-03      4.49000E-04
                              85.0                       5.15000E-03      3.70000E-04
                              87.0                       8.47000E-03      3.10000E-04
                              88.0                       9.71000E-03      6.70000E-04
                              89.0                       1.40500E-02      4.70000E-04
                              89.0                       1.39900E-02      1.75000E-03
                              89.0                       1.41800E-02      1.83000E-03
                              90.0                       1.78600E-02      1.17000E-03
                              91.0                       2.12600E-02      1.43000E-03
                              91.0                       2.18200E-02      7.70000E-04
                              91.0                       2.19500E-02      5.60000E-04
                              91.0                       2.21500E-02      9.30000E-04
                              92.0                       2.67400E-02      2.14000E-03
                              92.0                       2.68800E-02      7.10000E-04
                              93.0                       3.43100E-02      5.50000E-04
                              93.0                       3.46100E-02      4.50000E-04
                              93.0                       3.44300E-02      6.10000E-04
                              93.0                       3.48600E-02      4.40000E-04
                              94.0                       3.72000E-02      5.10000E-04
                              94.0                       3.77200E-02      1.21000E-03
                              95.0                       4.41800E-02      1.40000E-03
                              95.0                       4.47000E-02      6.60000E-04
                              95.0                       4.60400E-02      5.70000E-04
                              97.0                       5.02700E-02      3.10000E-04
                              99.0                       6.28400E-02      1.41000E-03
                              99.0                       6.27800E-02      9.00000E-04
                              99.0                       6.23500E-02      1.66000E-03
                             101.0                       6.49400E-02      5.10000E-04
                             102.0                       6.83500E-02      7.10000E-04
                             103.0                       6.29400E-02      2.60000E-03
                             103.0                       6.46000E-02      2.22000E-03
                             104.0                       5.73900E-02      3.70000E-04
                             105.0                       5.45100E-02      1.60000E-03
                             105.0                       5.89100E-02      1.17000E-03
                             105.0                       6.00200E-02      1.97000E-03
                             107.0                       3.65500E-02      1.96000E-03
                             108.0                       2.76600E-02      2.80000E-04
                             109.0                       1.73800E-02      3.30000E-04
                             111.0                       6.34000E-03      2.60000E-04
                             112.0                       2.54000E-03      3.10000E-04
                             113.0                       1.59200E-03      1.23000E-04
                             115.0                       8.22000E-04      4.80000E-05
                             117.0                       6.50000E-04      2.03000E-04
                             123.0                       8.81000E-04      5.90000E-05
                             125.0                       1.10200E-03      3.70000E-05
                             127.0                       4.07900E-03      4.10000E-04
                             127.0                       4.18000E-03      6.00000E-05
                             127.0                       4.26000E-03      9.00000E-05
                             128.0                       6.12000E-03      3.90000E-04
                             129.0                       1.09300E-02      4.10000E-04
                             130.0                       2.21800E-02      2.01000E-03
                             130.0                       1.92700E-02      2.16000E-03
                             131.0                       2.83300E-02      2.99000E-03
                             131.0                       3.10100E-02      1.19000E-03
                             132.0                       3.78600E-02      1.84000E-03
                             132.0                       4.91700E-02      5.20000E-04
                             132.0                       5.04900E-02      5.40000E-04
                             132.0                       5.06500E-02      5.30000E-04
                             133.0                       7.18500E-02      1.95000E-03
                             133.0                       6.78400E-02      2.12000E-03
                             133.0                       6.73200E-02      6.20000E-04
                             134.0                       7.63300E-02      8.50000E-04
                             134.0                       8.29800E-02      1.64000E-03
                             134.0                       8.25500E-02      8.10000E-04
                             134.0                       8.14800E-02      1.93000E-03
                             135.0                       7.21500E-02      4.00000E-04
                             135.0                       7.12200E-02      9.20000E-04
                             135.0                       7.22200E-02      9.10000E-04
                             136.0                       4.63300E-02      3.92000E-03
                             137.0                       6.52700E-02      3.60000E-03
                             138.0                       6.33300E-02      2.86000E-03
                             138.0                       6.22700E-02      1.30000E-03
                             138.0                       6.77000E-02      8.10000E-04
                             139.0                       5.74000E-02      1.30000E-03
                             139.0                       5.85600E-02      1.15000E-03
                             140.0                       5.02800E-02      3.13000E-03
                             140.0                       5.45300E-02      1.28000E-03
                             141.0                       5.00300E-02      1.80000E-03
                             141.0                       5.01400E-02      8.50000E-04
                             141.0                       4.94500E-02      1.21000E-03
                             141.0                       4.91900E-02      3.30000E-04
                             141.0                       5.08700E-02      2.60000E-04
                             142.0                       4.62500E-02      5.70000E-04
                             142.0                       4.77600E-02      7.10000E-04
                             142.0                       4.76700E-02      1.60000E-03
                             142.0                       4.72000E-02      2.30000E-04
                             142.0                       4.76900E-02      7.20000E-04
                             143.0                       4.34100E-02      9.50000E-04
                             144.0                       3.99600E-02      1.57000E-03
                             144.0                       3.84600E-02      9.60000E-04
                             144.0                       4.19600E-02      2.09000E-03
                             145.0                       3.10400E-02      3.70000E-04
                             146.0                       2.54800E-02      1.21000E-03
                             146.0                       2.47600E-02      8.90000E-04
                             146.0                       2.55900E-02      3.70000E-04
                             146.0                       2.56300E-02      2.10000E-04
                             147.0                       2.14600E-02      6.90000E-04
                             147.0                       2.23100E-02      2.60000E-04
                             147.0                       2.19600E-02      1.13000E-03
                             148.0                       1.89000E-02      2.11000E-03
                             149.0                       1.38300E-02      3.10000E-04
                             149.0                       1.31900E-02      1.09000E-03
                             151.0                       8.53000E-03      7.90000E-04
                             151.0                       8.59000E-03      2.00000E-04
                             153.0                       5.24000E-03      3.80000E-04
                             155.0                       2.36700E-03      4.30000E-05
                             156.0                       1.75500E-03      1.18000E-04
                             157.0                       1.32200E-03      1.80000E-04
