# entry-subent-pointer  : O0839-012-0 
# EXFOR reaction        : ['82-PB-0', ['P,X'], '36-KR-82,CUM,SIG'] 
# incident energy       : 5.7500e+01 MeV - 2.5950e+03 MeV 
# target                : Pb-0 
# product               : Kr-82 
# level energy          : - 
# MF-MT number          : 3 - 10 
# first author          : I.Leya 
# institute             : (2SWTETH): Eidgenossische Technische Hochschule, Zuerich 
# reference             : (J,NIM/B,229,1,2005) 
# year                  : 2005 
# facility              : (SYNCY): Synchro cyclotron 
# git                   : https://github.com/IAEA-NDS/exfor_master/blob/main/exforall/O08/O0839.x4 
# nds                   : https://nds.iaea.org/EXFOR/O0839
#
#       E_in(MeV)       dE_in(MeV)            XS(B)           dXS(B)
      5.75000E+01      8.00000E-01      2.35000E-05      2.00000E-06
      6.55000E+01      7.00000E-01      6.77000E-05      5.74000E-06
      7.65000E+01      1.80000E+00      1.35000E-04      7.00000E-04
      8.70000E+01      1.80000E+00      2.76000E-04      2.70000E-05
      9.65000E+01      1.70000E+00      4.27000E-04      4.10000E-05
      1.05000E+02      2.00000E+00      5.41000E-04      5.30000E-05
      1.14000E+02      2.00000E+00      6.06000E-04      6.20000E-05
      1.22000E+02      2.00000E+00      8.52000E-04      8.30000E-05
      1.30000E+02      1.00000E+00      1.06000E-03      1.00000E-04
      1.44000E+02      1.00000E+00      1.24000E-03      1.20000E-04
      1.58000E+02      1.00000E+00      1.48000E-03      1.40000E-04
      1.71000E+02      1.00000E+00      1.79000E-03      1.60000E-04
      2.40000E+02      2.00000E+00      2.12000E-03      7.88000E-03
      2.73000E+02      1.00000E+00      3.21000E-03      2.70000E-04
      3.22000E+02      2.00000E+00      5.21000E-03      4.40000E-04
      5.54000E+02      2.00000E+00      6.72000E-03      5.60000E-04
      7.59000E+02      2.00000E+00      6.88000E-03      5.90000E-04
      9.93000E+02      1.00000E+00      6.04000E-03      5.10000E-04
      1.16300E+03      1.00000E+00      9.08000E-03      7.70000E-04
      1.39500E+03      1.00000E+00      7.99000E-03      6.60000E-04
      1.56700E+03      1.00000E+00      6.71000E-03      4.98000E-03
      2.59500E+03      1.00000E+00      7.06000E-03      6.30000E-04
