# entry-subent-pointer  : D4326-003-0 
# EXFOR reaction        : (66-DY-0(P,X)66-DY-157,CUM,SIG) 
# incident energy       : 3.6900e+01 MeV - 6.4900e+01 MeV 
# target                : Dy-0 
# product               : Dy-157 
# level energy          : - 
# MF-MT number          : 3 - 10 
# first author          : Tarkanyi 
# institute             : (3HUNDEB): Institute for Nuclear Research (ATOMKI), Debrecen 
# reference             : (J,ARI,98,87,2015) 
# year                  : 2015 
# facility              : (CYCLO): Cyclotron 
# git                   : https://github.com/IAEA-NDS/exfor_master/blob/main/exforall/D43/D4326.x4 
# nds                   : https://nds.iaea.org/EXFOR/D4326
#
#       E_in(MeV)         dE_in(MeV)        XS(B)             dXS(B)
        3.6900E+01        8.0000E-01        1.6300E-02        1.8000E-03
        3.8400E+01        8.0000E-01        2.1400E-02        2.3000E-03
        3.9800E+01        8.0000E-01        2.9400E-02        3.2000E-03
        4.1200E+01        7.0000E-01        4.1700E-02        4.5000E-03
        4.2600E+01        7.0000E-01        5.8900E-02        6.4000E-03
        4.3900E+01        7.0000E-01        8.0400E-02        8.7000E-03
        4.5200E+01        7.0000E-01        1.0070E-01        1.0900E-02
        4.6500E+01        6.0000E-01        1.2110E-01        1.3100E-02
        4.7700E+01        6.0000E-01        1.3730E-01        1.4900E-02
        4.8900E+01        6.0000E-01        1.5560E-01        1.6800E-02
        5.0100E+01        6.0000E-01        1.7010E-01        1.8400E-02
        5.1300E+01        5.0000E-01        1.8390E-01        1.9900E-02
        5.2400E+01        5.0000E-01        1.8850E-01        2.0400E-02
        5.3600E+01        5.0000E-01        1.9950E-01        2.1600E-02
        5.4700E+01        5.0000E-01        2.0850E-01        2.2600E-02
        5.5800E+01        5.0000E-01        2.2190E-01        2.4000E-02
        5.6800E+01        4.0000E-01        2.3140E-01        2.5000E-02
        5.7900E+01        4.0000E-01        2.4420E-01        2.6400E-02
        5.9000E+01        4.0000E-01        2.5700E-01        2.7800E-02
        6.0000E+01        4.0000E-01        2.6360E-01        2.8500E-02
        6.1000E+01        4.0000E-01        2.7360E-01        2.9600E-02
        6.1900E+01        4.0000E-01        2.8070E-01        3.0400E-02
        6.3000E+01        3.0000E-01        2.8790E-01        3.1100E-02
        6.3900E+01        3.0000E-01        2.9930E-01        3.2400E-02
        6.4900E+01        3.0000E-01        2.7140E-01        2.9400E-02
