# entry-subent-pointer  : 10325-005-0 
# EXFOR reaction        : ['41-NB-93', ['N,INL'], '41-NB-93,PAR,SIG'] 
# incident energy       : 1.9000e+00 MeV - 4.0000e+00 MeV 
# target                : Nb-93 
# product               : Nb-93 
# level energy          : 1.3150e+00 MeV 
# MF-MT number          : 3 - 61 
# first author          : A.B.Smith 
# institute             : (1USAANL): Argonne National Laboratory, Argonne, IL 
# reference             : (J,ZP,264,379,1973) 
# year                  : 1973 
# facility              : (DYNAM): Dynamitron 
# git                   : https://github.com/IAEA-NDS/exfor_master/blob/main/exforall/103/10325.x4 
# nds                   : https://nds.iaea.org/EXFOR/10325
#
#       E_in(MeV)       dE_in(MeV)            XS(B)           dXS(B)
      1.90000E+00      0.00000E+00      2.58500E-01      5.85000E-02
      2.00000E+00      0.00000E+00      3.24100E-01      3.20000E-02
      2.10000E+00      0.00000E+00      3.12100E-01      3.10000E-02
      2.20000E+00      0.00000E+00      2.66400E-01      2.60000E-02
      2.30000E+00      0.00000E+00      2.68900E-01      2.90000E-02
      2.40000E+00      0.00000E+00      2.47700E-01      2.50000E-02
      2.40000E+00      0.00000E+00      2.19600E-01      2.20000E-02
      2.50000E+00      0.00000E+00      2.24500E-01      2.20000E-02
      2.60000E+00      0.00000E+00      2.32200E-01      2.30000E-02
      2.70000E+00      0.00000E+00      1.77700E-01      2.00000E-02
      2.80000E+00      0.00000E+00      2.14500E-01      2.10000E-02
      2.80000E+00      0.00000E+00      1.86900E-01      2.00000E-02
      2.90000E+00      0.00000E+00      1.90300E-01      2.00000E-02
      3.00000E+00      0.00000E+00      1.73200E-01      2.00000E-02
      3.10000E+00      0.00000E+00      1.26000E-01      2.00000E-02
      3.20000E+00      0.00000E+00      8.94000E-02      2.00000E-02
      3.30000E+00      0.00000E+00      1.16800E-01      2.00000E-02
      3.40000E+00      0.00000E+00      1.28300E-01      2.20000E-02
      3.50000E+00      0.00000E+00      1.41300E-01      4.00000E-02
      3.60000E+00      0.00000E+00      1.06600E-01      3.20000E-02
      3.80000E+00      0.00000E+00      6.28000E-02      6.30000E-03
      4.00000E+00      0.00000E+00      8.30000E-02      8.30000E-03
