# entry-subent-pointer  : G0025-003-0 
# EXFOR reaction        : ['92-U-234', ['G,F'], 'MASS,PRE,FY,,BRA'] 
# incident energy       : 7.5000e+00 MeV 
# target                : U-234 
# product               : 61.0 <= A <= 180.0 
# level energy          : - 
# MF-MT number          : 8 - 460 
# first author          : A.Goeoek 
# institute             : (2SWDSWD): Sweden 
# reference             : (J,NP/A,851,1,2011) 
# year                  : 2011 
# facility              : (LINAC): Linear accelerator 
# git                   : https://github.com/IAEA-NDS/exfor_master/blob/main/exforall/G00/G0025.x4 
# nds                   : https://nds.iaea.org/EXFOR/G0025
#
# Charge(No Dim.)    Mass(No Dim.)  Isomer(No Dim.)    Yield(%/fiss)   dYield(%/fiss)
                              61.0                       0.00000E+00      0.00000E+00
                              62.0                       0.00000E+00      0.00000E+00
                              63.0                       0.00000E+00      0.00000E+00
                              64.0                       0.00000E+00      0.00000E+00
                              65.0                       0.00000E+00      0.00000E+00
                              66.0                       0.00000E+00      0.00000E+00
                              67.0                       5.07000E-05      0.00000E+00
                              68.0                       0.00000E+00      0.00000E+00
                              69.0                       0.00000E+00      0.00000E+00
                              70.0                       5.07000E-05      0.00000E+00
                              71.0                       0.00000E+00      0.00000E+00
                              72.0                       1.01000E-04      0.00000E+00
                              73.0                       1.01000E-04      0.00000E+00
                              74.0                       3.55000E-04      0.00000E+00
                              75.0                       4.06000E-04      0.00000E+00
                              76.0                       6.60000E-04      0.00000E+00
                              77.0                       9.64000E-04      0.00000E+00
                              78.0                       1.42000E-03      0.00000E+00
                              79.0                       2.03000E-03      0.00000E+00
                              80.0                       3.55000E-03      0.00000E+00
                              81.0                       4.57000E-03      0.00000E+00
                              82.0                       6.65000E-03      0.00000E+00
                              83.0                       9.44000E-03      0.00000E+00
                              84.0                       1.23000E-02      0.00000E+00
                              85.0                       1.64000E-02      0.00000E+00
                              86.0                       2.14000E-02      0.00000E+00
                              87.0                       2.55000E-02      0.00000E+00
                              88.0                       3.09000E-02      0.00000E+00
                              89.0                       3.39000E-02      0.00000E+00
                              90.0                       4.21000E-02      0.00000E+00
                              91.0                       4.67000E-02      0.00000E+00
                              92.0                       4.63000E-02      0.00000E+00
                              93.0                       5.27000E-02      0.00000E+00
                              94.0                       4.07000E+02      0.00000E+00
                              95.0                       5.37000E-02      0.00000E+00
                              96.0                       5.31000E-02      0.00000E+00
                              97.0                       5.82000E-02      0.00000E+00
                              98.0                       5.70000E-02      0.00000E+00
                              99.0                       5.53000E-02      0.00000E+00
                             100.0                       5.06000E-02      0.00000E+00
                             101.0                       4.35000E-02      0.00000E+00
                             102.0                       3.86000E-02      0.00000E+00
                             103.0                       3.94000E-02      0.00000E+00
                             104.0                       3.21000E-02      0.00000E+00
                             105.0                       2.63000E-02      0.00000E+00
                             106.0                       2.36000E-02      0.00000E+00
                             107.0                       1.57000E-02      0.00000E+00
                             108.0                       1.14000E-02      0.00000E+00
                             109.0                       1.03000E-02      0.00000E+00
                             110.0                       6.24000E-03      0.00000E+00
                             111.0                       4.36000E-03      0.00000E+00
                             112.0                       2.69000E-03      0.00000E+00
                             113.0                       2.28000E-03      0.00000E+00
                             114.0                       2.03000E-03      0.00000E+00
                             115.0                       1.07000E-03      0.00000E+00
                             116.0                       1.78000E-03      0.00000E+00
                             117.0                       6.09000E-04      0.00000E+00
                             118.0                       1.78000E-03      0.00000E+00
                             119.0                       1.07000E-03      0.00000E+00
                             120.0                       2.03000E-03      0.00000E+00
                             121.0                       2.28000E-03      0.00000E+00
                             122.0                       2.69000E-03      0.00000E+00
                             123.0                       4.36000E-03      0.00000E+00
                             124.0                       6.24000E-03      0.00000E+00
                             125.0                       1.03000E-02      0.00000E+00
                             126.0                       1.14000E-02      0.00000E+00
                             127.0                       1.57000E-02      0.00000E+00
                             128.0                       2.36000E-02      0.00000E+00
                             129.0                       2.63000E-02      0.00000E+00
                             130.0                       3.21000E-02      0.00000E+00
                             131.0                       3.94000E-02      0.00000E+00
                             132.0                       3.86000E-02      0.00000E+00
                             133.0                       4.35000E-02      0.00000E+00
                             134.0                       5.06000E-02      0.00000E+00
                             135.0                       5.53000E-02      0.00000E+00
                             136.0                       5.70000E-02      0.00000E+00
                             137.0                       5.82000E-02      0.00000E+00
                             138.0                       5.31000E-02      0.00000E+00
                             139.0                       5.37000E-02      0.00000E+00
                             140.0                       4.07000E+02      0.00000E+00
                             141.0                       5.27000E-02      0.00000E+00
                             142.0                       4.63000E-02      0.00000E+00
                             143.0                       4.67000E-02      0.00000E+00
                             144.0                       4.21000E-02      0.00000E+00
                             145.0                       3.39000E-02      0.00000E+00
                             146.0                       3.09000E-02      0.00000E+00
                             147.0                       2.55000E-02      0.00000E+00
                             148.0                       2.14000E-02      0.00000E+00
                             149.0                       1.64000E-02      0.00000E+00
                             150.0                       1.23000E-02      0.00000E+00
                             151.0                       9.44000E-03      0.00000E+00
                             152.0                       6.65000E-03      0.00000E+00
                             153.0                       4.57000E-03      0.00000E+00
                             154.0                       3.55000E-03      0.00000E+00
                             155.0                       2.03000E-03      0.00000E+00
                             156.0                       1.42000E-03      0.00000E+00
                             157.0                       9.64000E-04      0.00000E+00
                             158.0                       6.60000E-04      0.00000E+00
                             159.0                       4.06000E-04      0.00000E+00
                             160.0                       3.55000E-04      0.00000E+00
                             161.0                       1.01000E-04      0.00000E+00
                             162.0                       1.01000E-04      0.00000E+00
                             163.0                       0.00000E+00      0.00000E+00
                             164.0                       5.07000E-05      0.00000E+00
                             165.0                       0.00000E+00      0.00000E+00
                             166.0                       0.00000E+00      0.00000E+00
                             167.0                       5.07000E-05      0.00000E+00
                             168.0                       0.00000E+00      0.00000E+00
                             169.0                       0.00000E+00      0.00000E+00
                             170.0                       0.00000E+00      0.00000E+00
                             171.0                       0.00000E+00      0.00000E+00
                             172.0                       0.00000E+00      0.00000E+00
                             173.0                       0.00000E+00      0.00000E+00
                             174.0                       0.00000E+00      0.00000E+00
                             175.0                       0.00000E+00      0.00000E+00
                             176.0                       0.00000E+00      0.00000E+00
                             177.0                       0.00000E+00      0.00000E+00
                             178.0                       0.00000E+00      0.00000E+00
                             179.0                       0.00000E+00      0.00000E+00
                             180.0                       0.00000E+00      0.00000E+00
