# entry-subent-pointer  : O1099-260-0 
# EXFOR reaction        : ['83-BI-209', ['P,X'], '79-AU-195,CUM,SIG'] 
# incident energy       : 8.8900e+01 MeV - 2.5980e+03 MeV 
# target                : Bi-209 
# product               : Au-195 
# level energy          : - 
# MF-MT number          : 3 - 10 
# first author          : R.Michel 
# institute             : (2GERUH): University Hannover (previously Tech.University Hannover) 
# reference             : (J,NSTS,2,242,2002) 
# year                  : 2002 
# facility              : (SYNCH): Synchrotron 
# git                   : https://github.com/IAEA-NDS/exfor_master/blob/main/exforall/O10/O1099.x4 
# nds                   : https://nds.iaea.org/EXFOR/O1099
#
#       E_in(MeV)       dE_in(MeV)            XS(B)           dXS(B)
      8.89000E+01      2.12000E+00      5.95200E-05      1.66600E-05
      9.44000E+01      1.53000E+00      1.40200E-04      3.72700E-05
      1.00800E+02      2.00800E+00      4.62300E-04      4.00300E-05
      1.01000E+02      1.94000E+00      3.26400E-04      2.67500E-05
      1.05000E+02      1.42000E+00      1.07900E-03      6.44400E-05
      1.11000E+02      1.86000E+00      4.35300E-03      2.56800E-04
      1.12000E+02      1.39000E+00      5.02400E-03      2.95600E-04
      1.21000E+02      1.25000E+00      1.08500E-02      6.27400E-04
      1.22000E+02      1.83000E+00      9.72100E-03      5.96200E-04
      1.25800E+02      1.90200E+00      1.05700E-02      6.02100E-04
      1.28000E+02      1.08000E+00      1.37500E-02      8.21200E-04
      1.31000E+02      1.73000E+00      1.43900E-02      8.15300E-04
      1.32800E+02      1.85700E+00      1.48300E-02      8.73400E-04
      1.42000E+02      1.56000E+00      1.04500E-02      6.18000E-04
      1.50000E+02      1.48000E+00      1.56300E-02      8.80800E-04
      1.54100E+02      1.52100E+00      2.05800E-02      1.19200E-03
      1.59000E+02      1.38000E+00      2.05100E-02      1.17900E-03
      1.60500E+02      1.48300E+00      1.99900E-02      1.12700E-03
      1.66000E+02      1.26000E+00      1.68000E-02      9.69300E-04
      2.35000E+02      0.00000E+00      6.80100E-02      5.21700E-03
      2.76500E+02      8.36100E-01      5.47900E-02      3.13400E-03
      2.76500E+02      8.36100E-01      5.60700E-02      3.25400E-03
      2.77900E+02      7.81800E-01      5.80900E-02      5.95900E-03
      3.18000E+02      1.96000E+00      6.89700E-02      4.27300E-03
      5.51000E+02      1.69000E+00      6.59000E-02      4.41400E-03
      5.51000E+02      1.69000E+00      6.83300E-02      3.97200E-03
      7.57000E+02      1.65000E+00      5.66900E-02      5.35200E-03
      7.57000E+02      1.65000E+00      5.83600E-02      3.42000E-03
      9.98000E+02      6.90000E-01      4.46600E-02      3.82700E-03
      1.17000E+03      1.45000E+00      3.81400E-02      5.12400E-03
      1.39800E+03      6.85900E-01      3.42700E-02      2.78100E-03
      1.57000E+03      1.47000E+00      3.00100E-02      5.72200E-03
      2.59800E+03      7.25100E-01      1.89500E-02      1.88600E-03
