# entry-subent-pointer  : 22700-010-0 
# EXFOR reaction        : ['14-SI-0', ['N,X'], '12-MG-27,,SIG'] 
# incident energy       : 9.5000e+00 MeV - 3.8500e+01 MeV 
# target                : Si-0 
# product               : Mg-27 
# level energy          : - 
# MF-MT number          : 3 - 10 
# first author          : Y.Uwamino 
# institute             : (2JPNTOK): University of Tokyo, Tokyo 
# reference             : (J,NST,31,1,1994) 
# year                  : 1994 
# facility              : (CYCLO): Cyclotron 
# git                   : https://github.com/IAEA-NDS/exfor_master/blob/main/exforall/227/22700.x4 
# nds                   : https://nds.iaea.org/EXFOR/22700
#
#       E_in(MeV)       dE_in(MeV)            XS(B)           dXS(B)
      9.50000E+00      0.00000E+00      2.00300E-04      1.11000E-04
      1.05000E+01      0.00000E+00      9.00900E-04      4.98000E-04
      1.15000E+01      0.00000E+00      1.50200E-03      8.29000E-04
      1.25000E+01      0.00000E+00      1.99100E-03      1.09000E-03
      1.35000E+01      0.00000E+00      2.56900E-03      1.41000E-03
      1.45000E+01      0.00000E+00      2.48800E-03      1.33000E-03
      1.55000E+01      0.00000E+00      3.03200E-03      1.61000E-03
      1.65000E+01      0.00000E+00      2.88300E-03      1.50000E-03
      1.75000E+01      0.00000E+00      2.55600E-03      1.29000E-03
      1.85000E+01      0.00000E+00      2.30000E-03      1.20000E-03
      1.95000E+01      0.00000E+00      2.00800E-03      1.05000E-03
      2.05000E+01      0.00000E+00      1.95300E-03      1.01000E-03
      2.15000E+01      0.00000E+00      2.99800E-03      1.49000E-03
      2.25000E+01      0.00000E+00      4.03300E-03      1.63000E-03
      2.35000E+01      0.00000E+00      5.10100E-03      2.54000E-03
      2.45000E+01      0.00000E+00      5.21400E-03      2.47000E-03
      2.55000E+01      0.00000E+00      9.37300E-03      4.01000E-03
      2.65000E+01      0.00000E+00      5.64800E-03      2.77000E-03
      2.75000E+01      0.00000E+00      7.02100E-03      3.11000E-03
      2.85000E+01      0.00000E+00      7.99500E-03      3.82000E-03
      2.95000E+01      0.00000E+00      8.87100E-03      3.94000E-03
      3.05000E+01      0.00000E+00      8.34600E-03      4.14000E-03
      3.15000E+01      0.00000E+00      5.63800E-03      2.69000E-03
      3.25000E+01      0.00000E+00      5.33500E-03      2.57000E-03
      3.35000E+01      0.00000E+00      6.60100E-03      3.27000E-03
      3.45000E+01      0.00000E+00      7.05800E-03      2.97000E-03
      3.55000E+01      0.00000E+00      5.15500E-03      2.65000E-03
      3.65000E+01      0.00000E+00      3.48200E-03      1.87000E-03
      3.75000E+01      0.00000E+00      3.41400E-03      1.84000E-03
      3.85000E+01      0.00000E+00      3.98300E-03      2.20000E-03
