# entry-subent-pointer  : 22700-009-0 
# EXFOR reaction        : ['14-SI-0', ['N,X'], '13-AL-29,,SIG'] 
# incident energy       : 6.5000e+00 MeV - 3.8500e+01 MeV 
# target                : Si-0 
# product               : Al-29 
# level energy          : - 
# MF-MT number          : 3 - 10 
# first author          : Y.Uwamino 
# institute             : (2JPNTOK): University of Tokyo, Tokyo 
# reference             : (J,NST,31,1,1994) 
# year                  : 1994 
# facility              : (CYCLO): Cyclotron 
# git                   : https://github.com/IAEA-NDS/exfor_master/blob/main/exforall/227/22700.x4 
# nds                   : https://nds.iaea.org/EXFOR/22700
#
#       E_in(MeV)       dE_in(MeV)            XS(B)           dXS(B)
      6.50000E+00      0.00000E+00      6.30900E-04      3.67000E-04
      7.50000E+00      0.00000E+00      1.44900E-03      8.99000E-04
      8.50000E+00      0.00000E+00      2.06100E-03      1.23000E-03
      9.50000E+00      0.00000E+00      2.71200E-03      1.57000E-03
      1.05000E+01      0.00000E+00      3.07900E-03      1.91000E-03
      1.15000E+01      0.00000E+00      3.17200E-03      1.92000E-03
      1.25000E+01      0.00000E+00      3.82300E-03      2.33000E-03
      1.35000E+01      0.00000E+00      4.57400E-03      2.74000E-03
      1.45000E+01      0.00000E+00      5.26500E-03      2.76000E-03
      1.55000E+01      0.00000E+00      6.45900E-03      3.36000E-03
      1.65000E+01      0.00000E+00      6.92700E-03      3.59000E-03
      1.75000E+01      0.00000E+00      6.81800E-03      3.06000E-03
      1.85000E+01      0.00000E+00      6.89800E-03      3.42000E-03
      1.95000E+01      0.00000E+00      6.10800E-03      3.04000E-03
      2.05000E+01      0.00000E+00      5.05100E-03      2.74000E-03
      2.15000E+01      0.00000E+00      5.01500E-03      2.50000E-03
      2.25000E+01      0.00000E+00      6.17100E-03      2.49000E-03
      2.35000E+01      0.00000E+00      7.44400E-03      2.91000E-03
      2.45000E+01      0.00000E+00      6.89000E-03      2.68000E-03
      2.55000E+01      0.00000E+00      5.47100E-03      2.83000E-03
      2.65000E+01      0.00000E+00      4.97700E-03      2.41000E-03
      2.75000E+01      0.00000E+00      6.16900E-03      2.37000E-03
      2.85000E+01      0.00000E+00      7.96500E-03      2.59000E-03
      2.95000E+01      0.00000E+00      6.83000E-03      2.46000E-03
      3.05000E+01      0.00000E+00      3.08400E-03      2.01000E-03
      3.15000E+01      0.00000E+00      1.55800E-03      1.44000E-03
      3.25000E+01      0.00000E+00      1.62300E-03      1.38000E-03
      3.35000E+01      0.00000E+00      1.84700E-03      1.42000E-03
      3.45000E+01      0.00000E+00      1.82200E-03      1.31000E-03
      3.55000E+01      0.00000E+00      1.74900E-03      1.31000E-03
      3.65000E+01      0.00000E+00      1.67500E-03      1.28000E-03
      3.75000E+01      0.00000E+00      1.61500E-03      1.24000E-03
      3.85000E+01      0.00000E+00      1.54300E-03      1.30000E-03
