# entry-subent-pointer  : 22700-008-0 
# EXFOR reaction        : ['14-SI-0', ['N,X'], '13-AL-28,,SIG'] 
# incident energy       : 5.5000e+00 MeV - 3.8500e+01 MeV 
# target                : Si-0 
# product               : Al-28 
# level energy          : - 
# MF-MT number          : 3 - 10 
# first author          : Y.Uwamino 
# institute             : (2JPNTOK): University of Tokyo, Tokyo 
# reference             : (J,NST,31,1,1994) 
# year                  : 1994 
# facility              : (CYCLO): Cyclotron 
# git                   : https://github.com/IAEA-NDS/exfor_master/blob/main/exforall/227/22700.x4 
# nds                   : https://nds.iaea.org/EXFOR/22700
#
#       E_in(MeV)       dE_in(MeV)            XS(B)           dXS(B)
      5.50000E+00      0.00000E+00      3.04400E-02      1.68000E-02
      6.50000E+00      0.00000E+00      1.05200E-01      5.71000E-02
      7.50000E+00      0.00000E+00      1.80800E-01      9.68000E-02
      8.50000E+00      0.00000E+00      1.91800E-01      1.02000E-01
      9.50000E+00      0.00000E+00      1.98300E-01      1.06000E-01
      1.05000E+01      0.00000E+00      2.32300E-01      1.22000E-01
      1.15000E+01      0.00000E+00      2.12600E-01      1.11000E-01
      1.25000E+01      0.00000E+00      2.18500E-01      1.15000E-01
      1.35000E+01      0.00000E+00      1.95600E-01      1.03000E-01
      1.45000E+01      0.00000E+00      1.49800E-01      7.77000E-02
      1.55000E+01      0.00000E+00      1.40100E-01      7.49000E-02
      1.65000E+01      0.00000E+00      1.33300E-01      7.15000E-02
      1.75000E+01      0.00000E+00      1.15900E-01      5.98000E-02
      1.85000E+01      0.00000E+00      1.17300E-01      6.20000E-02
      1.95000E+01      0.00000E+00      1.04400E-01      5.41000E-02
      2.05000E+01      0.00000E+00      9.17700E-02      4.75000E-02
      2.15000E+01      0.00000E+00      7.91400E-02      4.17000E-02
      2.25000E+01      0.00000E+00      7.90700E-02      4.03000E-02
      2.35000E+01      0.00000E+00      7.86100E-02      4.11000E-02
      2.45000E+01      0.00000E+00      7.58200E-02      3.92000E-02
      2.55000E+01      0.00000E+00      7.26800E-02      3.75000E-02
      2.65000E+01      0.00000E+00      6.56700E-02      3.42000E-02
      2.75000E+01      0.00000E+00      6.34400E-02      3.29000E-02
      2.85000E+01      0.00000E+00      6.21800E-02      3.27000E-02
      2.95000E+01      0.00000E+00      5.93300E-02      3.11000E-02
      3.05000E+01      0.00000E+00      5.44900E-02      2.95000E-02
      3.15000E+01      0.00000E+00      4.88200E-02      2.69000E-02
      3.25000E+01      0.00000E+00      4.59400E-02      2.53000E-02
      3.35000E+01      0.00000E+00      4.31000E-02      2.34000E-02
      3.45000E+01      0.00000E+00      4.07800E-02      2.19000E-02
      3.55000E+01      0.00000E+00      3.86100E-02      2.11000E-02
      3.65000E+01      0.00000E+00      3.64000E-02      2.00000E-02
      3.75000E+01      0.00000E+00      3.47700E-02      1.91000E-02
      3.85000E+01      0.00000E+00      3.32300E-02      1.84000E-02
