# entry-subent-pointer  : F0294-004-0 
# EXFOR reaction        : (5-B-11(P,INL)5-B-11,PAR,SIG) 
# incident energy       : 3.7140e+00 MeV - 7.5220e+00 MeV 
# target                : B-11 
# product               : B-11 
# level energy          : 2.1250e+00 MeV 
# MF-MT number          : 3 - 601 
# first author          : Borchers 
# institute             : (2GERBOC): Ruhr-Universitaet Bochum 
# reference             : (J,NP/A,405,141,1983) 
# year                  : 1983 
# facility              : (DYNAM): Dynamitron 
# git                   : https://github.com/IAEA-NDS/exfor_master/blob/main/exforall/F02/F0294.x4 
# nds                   : https://nds.iaea.org/EXFOR/F0294
#
#       E_in(MeV)         dE_in(MeV)        XS(B)             dXS(B)
        3.7140E+00        1.5000E-02        2.2500E-02        0.0000E+00
        3.7950E+00        1.5000E-02        2.1300E-02        0.0000E+00
        3.8940E+00        1.5000E-02        1.1000E-02        0.0000E+00
        3.9910E+00        1.5000E-02        1.3800E-02        0.0000E+00
        4.1020E+00        1.5000E-02        2.1800E-02        0.0000E+00
        4.1970E+00        1.5000E-02        3.2300E-02        0.0000E+00
        4.3080E+00        1.5000E-02        4.0300E-02        0.0000E+00
        4.4050E+00        1.5000E-02        4.3100E-02        0.0000E+00
        4.5020E+00        1.5000E-02        4.3200E-02        0.0000E+00
        4.5180E+00        1.5000E-02        4.4500E-02        0.0000E+00
        4.5960E+00        1.5000E-02        5.5100E-02        0.0000E+00
        4.6130E+00        1.5000E-02        5.3800E-02        0.0000E+00
        4.7080E+00        1.5000E-02        6.0500E-02        0.0000E+00
        4.7080E+00        1.5000E-02        6.1800E-02        0.0000E+00
        4.8050E+00        1.5000E-02        6.3200E-02        0.0000E+00
        4.8210E+00        1.5000E-02        6.0600E-02        0.0000E+00
        4.8530E+00        1.5000E-02        6.5900E-02        0.0000E+00
        4.8990E+00        1.5000E-02        7.3800E-02        0.0000E+00
        4.9150E+00        1.5000E-02        7.7700E-02        0.0000E+00
        4.9590E+00        1.5000E-02        9.6100E-02        0.0000E+00
        5.0040E+00        1.5000E-02        1.1180E-01        2.6000E-03
        5.0050E+00        1.5000E-02        1.0920E-01        5.2000E-03
        5.0490E+00        1.5000E-02        1.3010E-01        3.9000E-03
        5.0930E+00        1.5000E-02        1.4980E-01        6.5000E-03
        5.1450E+00        1.5000E-02        1.3160E-01        2.6000E-03
        5.2030E+00        1.5000E-02        9.2500E-02        0.0000E+00
        5.2870E+00        1.5000E-02        7.5700E-02        0.0000E+00
        5.3710E+00        1.5000E-02        6.2700E-02        0.0000E+00
        5.4710E+00        1.5000E-02        4.8500E-02        0.0000E+00
        5.5700E+00        1.5000E-02        4.0900E-02        0.0000E+00
        5.6830E+00        1.5000E-02        4.3600E-02        0.0000E+00
        5.7780E+00        1.5000E-02        5.0300E-02        0.0000E+00
        5.8730E+00        1.5000E-02        5.9500E-02        0.0000E+00
        5.9830E+00        1.5000E-02        7.5400E-02        0.0000E+00
        6.0470E+00        1.5000E-02        7.8100E-02        5.2000E-03
        6.0940E+00        1.5000E-02        8.4700E-02        0.0000E+00
        6.1450E+00        1.5000E-02        7.3000E-02        0.0000E+00
        6.2110E+00        1.5000E-02        6.7900E-02        0.0000E+00
        6.2920E+00        1.5000E-02        6.8000E-02        0.0000E+00
        6.4060E+00        1.5000E-02        6.4200E-02        0.0000E+00
        6.5030E+00        1.5000E-02        6.7000E-02        0.0000E+00
        6.5840E+00        1.5000E-02        6.4500E-02        0.0000E+00
        6.6820E+00        1.5000E-02        6.2000E-02        0.0000E+00
        6.7940E+00        1.5000E-02        6.4800E-02        0.0000E+00
        6.8920E+00        1.5000E-02        6.3600E-02        0.0000E+00
        6.9880E+00        1.5000E-02        6.5100E-02        0.0000E+00
        7.0850E+00        1.5000E-02        6.6500E-02        0.0000E+00
        7.1820E+00        1.5000E-02        6.5400E-02        0.0000E+00
        7.2790E+00        1.5000E-02        6.5500E-02        0.0000E+00
        7.3930E+00        1.5000E-02        6.5700E-02        3.9000E-03
        7.5220E+00        1.5000E-02        6.5900E-02        0.0000E+00
