# entry-subent-pointer  : 22152-009-0 
# EXFOR reaction        : ['92-U-235', ['N,F'], 'MASS,PRE,FY,,MXW'] 
# incident energy       : 2.5300e-08 MeV 
# target                : U-235 
# product               : 79.0 <= A <= 157.0 
# level energy          : - 
# MF-MT number          : 8 - 460 
# first author          : G.Simon 
# institute             : (2FR BRC): CEA/DAM Ile-de-France, Bruyeres-le-Chatel, Arpajon 
# reference             : (J,NIM/A,286,220,1990) 
# year                  : 1990 
# facility              : (REAC): Reactor 
# git                   : https://github.com/IAEA-NDS/exfor_master/blob/main/exforall/221/22152.x4 
# nds                   : https://nds.iaea.org/EXFOR/22152
#
# Charge(No Dim.)    Mass(No Dim.)  Isomer(No Dim.)    Yield(%/fiss)   dYield(%/fiss)
                              79.0                       7.38820E-04      0.00000E+00
                              80.0                       1.32250E-03      0.00000E+00
                              81.0                       1.90170E-03      0.00000E+00
                              82.0                       2.79090E-03      0.00000E+00
                              83.0                       4.28680E-03      0.00000E+00
                              84.0                       6.55130E-03      0.00000E+00
                              85.0                       9.88070E-03      0.00000E+00
                              86.0                       1.36690E-02      0.00000E+00
                              87.0                       1.79240E-02      0.00000E+00
                              88.0                       2.40080E-02      0.00000E+00
                              89.0                       3.00920E-02      0.00000E+00
                              90.0                       4.07700E-02      0.00000E+00
                              91.0                       5.02200E-02      0.00000E+00
                              92.0                       5.75270E-02      0.00000E+00
                              93.0                       5.94810E-02      0.00000E+00
                              94.0                       5.99120E-02      0.00000E+00
                              95.0                       6.46160E-02      0.00000E+00
                              96.0                       6.50470E-02      0.00000E+00
                              97.0                       6.36360E-02      0.00000E+00
                              98.0                       6.02420E-02      0.00000E+00
                              99.0                       5.79180E-02      0.00000E+00
                             100.0                       5.43670E-02      0.00000E+00
                             101.0                       5.54090E-02      0.00000E+00
                             102.0                       5.32290E-02      0.00000E+00
                             103.0                       4.83080E-02      0.00000E+00
                             104.0                       3.57330E-02      0.00000E+00
                             105.0                       2.48430E-02      0.00000E+00
                             106.0                       1.62500E-02      0.00000E+00
                             107.0                       9.49030E-03      0.00000E+00
                             108.0                       4.41150E-03      0.00000E+00
                             109.0                       1.93470E-03      0.00000E+00
                             110.0                       8.33110E-04      0.00000E+00
                             126.0                       9.40620E-04      0.00000E+00
                             127.0                       2.13550E-03      0.00000E+00
                             128.0                       4.55270E-03      0.00000E+00
                             129.0                       9.71570E-03      0.00000E+00
                             130.0                       1.61060E-02      0.00000E+00
                             131.0                       2.46390E-02      0.00000E+00
                             132.0                       3.56170E-02      0.00000E+00
                             133.0                       4.82810E-02      0.00000E+00
                             134.0                       5.31380E-02      0.00000E+00
                             135.0                       5.54030E-02      0.00000E+00
                             136.0                       5.46070E-02      0.00000E+00
                             137.0                       5.76310E-02      0.00000E+00
                             138.0                       6.02010E-02      0.00000E+00
                             139.0                       6.33820E-02      0.00000E+00
                             140.0                       6.48780E-02      0.00000E+00
                             141.0                       6.43830E-02      0.00000E+00
                             142.0                       5.97670E-02      0.00000E+00
                             143.0                       5.92760E-02      0.00000E+00
                             144.0                       5.72580E-02      0.00000E+00
                             145.0                       5.01930E-02      0.00000E+00
                             146.0                       4.06830E-02      0.00000E+00
                             147.0                       3.02520E-02      0.00000E+00
                             148.0                       2.41030E-02      0.00000E+00
                             149.0                       1.78020E-02      0.00000E+00
                             150.0                       1.36400E-02      0.00000E+00
                             151.0                       9.78370E-03      0.00000E+00
                             152.0                       6.54300E-03      0.00000E+00
                             153.0                       4.21900E-03      0.00000E+00
                             154.0                       2.50160E-03      0.00000E+00
                             155.0                       1.71020E-03      0.00000E+00
                             156.0                       1.21520E-03      0.00000E+00
                             157.0                       7.29320E-04      0.00000E+00
