# entry-subent-pointer  : 23591-004-0 
# EXFOR reaction        : ['92-U-235', ['N,F'], 'MASS,PRE,FY'] 
# incident energy       : 4.5000e+00 MeV 
# target                : U-235 
# product               : 74.0 <= A <= 166.0 
# level energy          : - 
# MF-MT number          : 8 - 460 
# first author          : Ch.Straede 
# institute             : (2ZZZGEL): EC Joint Research Centre (EC-JRC), Geel 
# reference             : (J,NP/A,462,85,1987) 
# year                  : 1987 
# facility              : (VDG): Van de Graaff 
# git                   : https://github.com/IAEA-NDS/exfor_master/blob/main/exforall/235/23591.x4 
# nds                   : https://nds.iaea.org/EXFOR/23591
#
# Charge(No Dim.)    Mass(No Dim.)  Isomer(No Dim.)    Yield(%/fiss)   dYield(%/fiss)
                              74.0                       1.36000E-04      0.00000E+00
                              76.0                       1.47000E-04      0.00000E+00
                              77.0                       1.40000E-04      0.00000E+00
                              79.0                       6.97000E-04      0.00000E+00
                              81.0                       1.79500E-03      0.00000E+00
                              82.0                       2.88600E-03      0.00000E+00
                              83.0                       4.25100E-03      0.00000E+00
                              84.0                       6.42200E-03      0.00000E+00
                              85.0                       9.94600E-03      0.00000E+00
                              86.0                       1.34730E-02      0.00000E+00
                              87.0                       1.59130E-02      0.00000E+00
                              88.0                       2.05190E-02      0.00000E+00
                              89.0                       2.70160E-02      0.00000E+00
                              90.0                       3.40530E-02      0.00000E+00
                              91.0                       4.02770E-02      0.00000E+00
                              92.0                       5.00200E-02      0.00000E+00
                              92.0                       5.35390E-02      0.00000E+00
                              94.0                       5.51740E-02      0.00000E+00
                              95.0                       5.68040E-02      0.00000E+00
                              96.0                       6.24930E-02      1.34900E-03
                              97.0                       6.03390E-02      0.00000E+00
                              98.0                       6.52140E-02      1.62200E-03
                              99.0                       6.33330E-02      1.89500E-03
                              99.0                       5.09070E-02      0.00000E+00
                             101.0                       5.68640E-02      0.00000E+00
                             102.0                       5.44430E-02      0.00000E+00
                             103.0                       4.47240E-02      0.00000E+00
                             104.0                       3.71660E-02      0.00000E+00
                             105.0                       2.85290E-02      0.00000E+00
                             106.0                       2.36720E-02      0.00000E+00
                             107.0                       1.50320E-02      0.00000E+00
                             108.0                       1.09900E-02      0.00000E+00
                             109.0                       5.32500E-03      0.00000E+00
                             110.0                       4.34400E-03      4.86000E-04
                             111.0                       2.91200E-03      0.00000E+00
                             112.0                       3.18400E-03      3.51000E-04
                             113.0                       8.60000E-04      2.43000E-04
                             114.0                       1.18600E-03      0.00000E+00
                             115.0                       1.34900E-03      2.15000E-04
                             116.0                       1.37700E-03      2.43000E-04
                             117.0                       9.72000E-04      2.43000E-04
                             118.0                       1.29800E-03      1.89000E-04
                             119.0                       6.50000E-04      0.00000E+00
                             120.0                       9.75000E-04      0.00000E+00
                             121.0                       1.30100E-03      2.43000E-04
                             122.0                       1.30200E-03      2.70000E-04
                             123.0                       1.76300E-03      2.43000E-04
                             124.0                       2.19600E-03      0.00000E+00
                             125.0                       2.73800E-03      0.00000E+00
                             126.0                       4.44100E-03      4.59000E-04
                             127.0                       6.59000E-03      0.00000E+00
                             128.0                       1.06550E-02      0.00000E+00
                             129.0                       1.49870E-02      0.00000E+00
                             130.0                       2.55400E-02      0.00000E+00
                             131.0                       3.01430E-02      0.00000E+00
                             132.0                       3.74510E-02      0.00000E+00
                             133.0                       4.50290E-02      0.00000E+00
                             134.0                       4.96340E-02      0.00000E+00
                             135.0                       5.36990E-02      0.00000E+00
                             136.0                       5.53310E-02      0.00000E+00
                             137.0                       5.96630E-02      1.62200E-03
                             138.0                       6.42690E-02      1.62200E-03
                             139.0                       6.21180E-02      0.00000E+00
                             140.0                       6.10480E-02      0.00000E+00
                             140.0                       5.72690E-02      0.00000E+00
                             142.0                       5.72860E-02      0.00000E+00
                             143.0                       4.99950E-02      0.00000E+00
                             144.0                       4.83810E-02      0.00000E+00
                             145.0                       3.97470E-02      0.00000E+00
                             146.0                       3.46200E-02      0.00000E+00
                             147.0                       3.05780E-02      0.00000E+00
                             148.0                       2.08540E-02      0.00000E+00
                             149.0                       1.76250E-02      0.00000E+00
                             150.0                       1.35790E-02      0.00000E+00
                             151.0                       9.53600E-03      0.00000E+00
                             152.0                       6.30200E-03      0.00000E+00
                             153.0                       5.23400E-03      0.00000E+00
                             154.0                       2.81000E-03      0.00000E+00
                             155.0                       1.74300E-03      0.00000E+00
                             157.0                       9.46000E-04      0.00000E+00
                             158.0                       4.19000E-04      0.00000E+00
                             160.0                       1.68000E-04      0.00000E+00
                             162.0                       8.60000E-05      0.00000E+00
                             164.0                       2.09000E-04      0.00000E+00
                             166.0                       4.50000E-05      0.00000E+00
