# entry-subent-pointer  : 23591-004-0 
# EXFOR reaction        : ['92-U-235', ['N,F'], 'MASS,PRE,FY'] 
# incident energy       : 6.0000e+00 MeV 
# target                : U-235 
# product               : 74.0 <= A <= 166.0 
# level energy          : - 
# MF-MT number          : 8 - 460 
# first author          : Ch.Straede 
# institute             : (2ZZZGEL): EC Joint Research Centre (EC-JRC), Geel 
# reference             : (J,NP/A,462,85,1987) 
# year                  : 1987 
# facility              : (VDG): Van de Graaff 
# git                   : https://github.com/IAEA-NDS/exfor_master/blob/main/exforall/235/23591.x4 
# nds                   : https://nds.iaea.org/EXFOR/23591
#
# Charge(No Dim.)    Mass(No Dim.)  Isomer(No Dim.)    Yield(%/fiss)   dYield(%/fiss)
                              74.0                       1.47000E-04      0.00000E+00
                              75.0                       1.72000E-04      0.00000E+00
                              77.0                       1.69000E-04      0.00000E+00
                              78.0                       3.78000E-04      0.00000E+00
                              80.0                       9.24000E-04      0.00000E+00
                              81.0                       2.01400E-03      0.00000E+00
                              82.0                       2.83200E-03      0.00000E+00
                              83.0                       5.28300E-03      0.00000E+00
                              84.0                       6.37300E-03      0.00000E+00
                              85.0                       8.55100E-03      0.00000E+00
                              86.0                       1.34510E-02      0.00000E+00
                              87.0                       1.61730E-02      0.00000E+00
                              88.0                       2.21610E-02      0.00000E+00
                              89.0                       2.76050E-02      0.00000E+00
                              90.0                       3.33210E-02      0.00000E+00
                              91.0                       3.87640E-02      0.00000E+00
                              92.0                       4.36640E-02      0.00000E+00
                              93.0                       5.01960E-02      0.00000E+00
                              94.0                       5.37350E-02      0.00000E+00
                              95.0                       5.67290E-02      0.00000E+00
                              96.0                       5.59150E-02      0.00000E+00
                              97.0                       6.02710E-02      0.00000E+00
                              98.0                       5.91840E-02      0.00000E+00
                              99.0                       6.08180E-02      0.00000E+00
                             100.0                       5.56500E-02      0.00000E+00
                             101.0                       5.18410E-02      0.00000E+00
                             102.0                       5.29320E-02      0.00000E+00
                             103.0                       4.34100E-02      0.00000E+00
                             104.0                       4.15060E-02      0.00000E+00
                             105.0                       3.22570E-02      0.00000E+00
                             106.0                       2.57280E-02      0.00000E+00
                             107.0                       2.02880E-02      0.00000E+00
                             108.0                       1.26700E-02      0.00000E+00
                             109.0                       8.59000E-03      0.00000E+00
                             110.0                       6.84500E-03      0.00000E+00
                             111.0                       5.37600E-03      0.00000E+00
                             112.0                       3.82500E-03      0.00000E+00
                             113.0                       3.52600E-03      0.00000E+00
                             114.0                       3.14500E-03      0.00000E+00
                             115.0                       2.68300E-03      2.72000E-04
                             116.0                       1.89400E-03      2.44000E-04
                             117.0                       1.43100E-03      1.90000E-04
                             118.0                       1.56800E-03      0.00000E+00
                             119.0                       1.84000E-03      0.00000E+00
                             120.0                       2.05800E-03      2.17000E-04
                             121.0                       2.62900E-03      2.17000E-04
                             122.0                       2.33000E-03      2.72000E-04
                             123.0                       3.55500E-03      2.72000E-04
                             124.0                       4.26200E-03      3.26000E-04
                             125.0                       5.26900E-03      3.53000E-04
                             126.0                       5.62600E-03      0.00000E+00
                             127.0                       9.16400E-03      0.00000E+00
                             128.0                       1.16150E-02      0.00000E+00
                             129.0                       1.92360E-02      0.00000E+00
                             130.0                       2.60400E-02      0.00000E+00
                             131.0                       3.28440E-02      0.00000E+00
                             132.0                       3.66550E-02      0.00000E+00
                             133.0                       4.80850E-02      0.00000E+00
                             134.0                       5.38010E-02      0.00000E+00
                             136.0                       5.32590E-02      0.00000E+00
                             137.0                       5.51650E-02      0.00000E+00
                             137.0                       5.97920E-02      0.00000E+00
                             139.0                       5.81630E-02      0.00000E+00
                             141.0                       5.81650E-02      0.00000E+00
                             141.0                       5.59890E-02      0.00000E+00
                             142.0                       5.43580E-02      0.00000E+00
                             143.0                       4.83740E-02      0.00000E+00
                             144.0                       4.56540E-02      0.00000E+00
                             145.0                       3.83090E-02      0.00000E+00
                             146.0                       3.15080E-02      0.00000E+00
                             147.0                       2.57950E-02      0.00000E+00
                             148.0                       2.17160E-02      0.00000E+00
                             149.0                       1.65470E-02      0.00000E+00
                             150.0                       1.30120E-02      0.00000E+00
                             151.0                       9.74800E-03      0.00000E+00
                             152.0                       7.02900E-03      0.00000E+00
                             153.0                       4.58200E-03      0.00000E+00
                             154.0                       2.95100E-03      0.00000E+00
                             156.0                       1.59200E-03      0.00000E+00
                             157.0                       5.06000E-04      0.00000E+00
                             159.0                       3.07000E-04      0.00000E+00
                             160.0                       3.05000E-04      0.00000E+00
                             162.0                       2.74000E-04      0.00000E+00
                             164.0                       1.99000E-04      0.00000E+00
                             166.0                       1.67000E-04      0.00000E+00
