# entry-subent-pointer  : 23591-004-0 
# EXFOR reaction        : ['92-U-235', ['N,F'], 'MASS,PRE,FY'] 
# incident energy       : 5.0000e+00 MeV 
# target                : U-235 
# product               : 74.0 <= A <= 166.0 
# level energy          : - 
# MF-MT number          : 8 - 460 
# first author          : Ch.Straede 
# institute             : (2ZZZGEL): EC Joint Research Centre (EC-JRC), Geel 
# reference             : (J,NP/A,462,85,1987) 
# year                  : 1987 
# facility              : (VDG): Van de Graaff 
# git                   : https://github.com/IAEA-NDS/exfor_master/blob/main/exforall/235/23591.x4 
# nds                   : https://nds.iaea.org/EXFOR/23591
#
# Charge(No Dim.)    Mass(No Dim.)  Isomer(No Dim.)    Yield(%/fiss)   dYield(%/fiss)
                              74.0                       6.10000E-05      0.00000E+00
                              76.0                       1.40000E-05      0.00000E+00
                              78.0                       2.90000E-04      0.00000E+00
                              79.0                       8.35000E-04      0.00000E+00
                              81.0                       1.91900E-03      0.00000E+00
                              82.0                       2.46300E-03      0.00000E+00
                              83.0                       4.89800E-03      0.00000E+00
                              84.0                       7.33300E-03      0.00000E+00
                              85.0                       9.49800E-03      0.00000E+00
                              86.0                       1.19330E-02      0.00000E+00
                              87.0                       1.65300E-02      0.00000E+00
                              88.0                       2.35590E-02      0.00000E+00
                              89.0                       2.65350E-02      0.00000E+00
                              90.0                       3.57270E-02      0.00000E+00
                              91.0                       4.14060E-02      0.00000E+00
                              92.0                       4.35700E-02      0.00000E+00
                              93.0                       5.19510E-02      0.00000E+00
                              94.0                       5.33050E-02      0.00000E+00
                              95.0                       5.81720E-02      0.00000E+00
                              96.0                       6.33100E-02      0.00000E+00
                              97.0                       5.92580E-02      0.00000E+00
                              98.0                       6.14230E-02      0.00000E+00
                              99.0                       6.35880E-02      0.00000E+00
                             100.0                       5.54820E-02      0.00000E+00
                             101.0                       5.27820E-02      0.00000E+00
                             102.0                       5.41360E-02      0.00000E+00
                             103.0                       4.44090E-02      0.00000E+00
                             104.0                       4.00870E-02      0.00000E+00
                             105.0                       3.57650E-02      0.00000E+00
                             106.0                       2.60380E-02      0.00000E+00
                             107.0                       1.63120E-02      0.00000E+00
                             108.0                       1.25300E-02      0.00000E+00
                             109.0                       8.20800E-03      0.00000E+00
                             110.0                       6.33400E-03      4.86000E-04
                             111.0                       3.55100E-03      3.51000E-04
                             112.0                       2.79400E-03      2.97000E-04
                             113.0                       2.55100E-03      3.24000E-04
                             114.0                       1.82200E-03      0.00000E+00
                             115.0                       2.11900E-03      2.70000E-04
                             116.0                       1.52500E-03      2.43000E-04
                             117.0                       9.58000E-04      2.16000E-04
                             118.0                       1.33600E-03      1.89000E-04
                             119.0                       8.77000E-04      2.16000E-04
                             120.0                       1.17500E-03      1.89000E-04
                             121.0                       1.68900E-03      2.70000E-04
                             122.0                       1.95900E-03      2.70000E-04
                             123.0                       1.33800E-03      2.43000E-04
                             124.0                       2.77000E-03      2.97000E-04
                             125.0                       3.31100E-03      3.51000E-04
                             126.0                       4.41900E-03      3.78000E-04
                             127.0                       6.09400E-03      0.00000E+00
                             128.0                       1.17720E-02      0.00000E+00
                             129.0                       1.52880E-02      0.00000E+00
                             130.0                       2.20470E-02      0.00000E+00
                             131.0                       2.93470E-02      0.00000E+00
                             132.0                       3.71880E-02      0.00000E+00
                             133.0                       4.66490E-02      0.00000E+00
                             134.0                       4.71920E-02      0.00000E+00
                             135.0                       5.31410E-02      0.00000E+00
                             137.0                       5.42260E-02      0.00000E+00
                             138.0                       5.88230E-02      0.00000E+00
                             138.0                       6.17970E-02      0.00000E+00
                             140.0                       5.96390E-02      0.00000E+00
                             141.0                       6.23450E-02      0.00000E+00
                             141.0                       5.61290E-02      0.00000E+00
                             142.0                       5.47810E-02      0.00000E+00
                             143.0                       5.12700E-02      0.00000E+00
                             144.0                       4.42450E-02      0.00000E+00
                             145.0                       4.10040E-02      0.00000E+00
                             146.0                       3.58720E-02      0.00000E+00
                             147.0                       2.99280E-02      0.00000E+00
                             148.0                       2.31740E-02      0.00000E+00
                             149.0                       1.83130E-02      0.00000E+00
                             150.0                       1.45320E-02      0.00000E+00
                             151.0                       1.12900E-02      0.00000E+00
                             152.0                       8.32100E-03      0.00000E+00
                             153.0                       4.81000E-03      0.00000E+00
                             154.0                       2.92000E-03      0.00000E+00
                             155.0                       1.84200E-03      0.00000E+00
                             157.0                       1.30500E-03      0.00000E+00
                             158.0                       4.98000E-04      0.00000E+00
                             160.0                       2.33000E-04      0.00000E+00
                             162.0                       2.38000E-04      0.00000E+00
                             164.0                       2.43000E-04      0.00000E+00
                             165.0                       2.47000E-04      0.00000E+00
                             166.0                       2.10000E-05      0.00000E+00
