# entry-subent-pointer  : 22644-004-0 
# EXFOR reaction        : ['95-AM-242-M', ['N,F'], ',,SIG'] 
# incident energy       : 2.6610e-09 MeV - 3.7580e-05 MeV 
# target                : Am-242-m 
# product               : - 
# level energy          : - 
# MF-MT number          : 3 - 18 
# first author          : T.Kai 
# institute             : (2JPNKTO): Kyoto University , Kyoto 
# reference             : ((S,JAERI-C-98-003,225,1998)=(S,INDC(JPN)-180,225,1998)) 
# year                  : 1998 
# facility              : None 
# git                   : https://github.com/IAEA-NDS/exfor_master/blob/main/exforall/226/22644.x4 
# nds                   : https://nds.iaea.org/EXFOR/22644
#
#       E_in(MeV)       dE_in(MeV)            XS(B)           dXS(B)
      2.66100E-09      0.00000E+00      1.69000E+04      1.80000E+03
      2.98500E-09      0.00000E+00      1.70000E+04      1.60000E+03
      3.35000E-09      0.00000E+00      1.40000E+04      1.20000E+03
      3.75800E-09      0.00000E+00      1.38000E+04      9.60000E+02
      4.21700E-09      0.00000E+00      1.34000E+04      8.10000E+02
      4.73200E-09      0.00000E+00      1.20000E+04      6.40000E+02
      5.30900E-09      0.00000E+00      1.17000E+04      5.00000E+02
      5.95700E-09      0.00000E+00      1.06000E+04      4.10000E+02
      6.68300E-09      0.00000E+00      9.72000E+03      3.30000E+02
      7.49900E-09      0.00000E+00      9.77000E+03      2.70000E+02
      8.41400E-09      0.00000E+00      8.87000E+03      2.20000E+02
      9.44100E-09      0.00000E+00      8.58000E+03      1.80000E+02
      1.05900E-08      0.00000E+00      8.76000E+03      1.60000E+02
      1.18900E-08      0.00000E+00      8.30000E+03      1.40000E+02
      1.33300E-08      0.00000E+00      7.70000E+03      1.10000E+02
      1.49600E-08      0.00000E+00      7.26000E+03      9.90000E+01
      1.67900E-08      0.00000E+00      7.10000E+03      8.60000E+01
      1.88400E-08      0.00000E+00      7.07000E+03      7.80000E+01
      2.11400E-08      0.00000E+00      6.72000E+03      6.80000E+01
      2.37100E-08      0.00000E+00      6.42000E+03      6.10000E+01
      2.66100E-08      0.00000E+00      6.22000E+03      5.60000E+01
      2.98500E-08      0.00000E+00      6.02000E+03      5.10000E+01
      3.35000E-08      0.00000E+00      5.86000E+03      4.80000E+01
      3.75800E-08      0.00000E+00      5.64000E+03      4.50000E+01
      4.21700E-08      0.00000E+00      5.56000E+03      4.30000E+01
      4.73200E-08      0.00000E+00      5.46000E+03      4.20000E+01
      5.30900E-08      0.00000E+00      5.34000E+03      4.20000E+01
      5.95700E-08      0.00000E+00      5.27000E+03      4.20000E+01
      6.68300E-08      0.00000E+00      5.14000E+03      4.30000E+01
      7.49900E-08      0.00000E+00      5.24000E+03      4.60000E+01
      8.41400E-08      0.00000E+00      5.15000E+03      4.80000E+01
      9.44100E-08      0.00000E+00      4.93000E+03      5.10000E+01
      1.05900E-07      0.00000E+00      4.98000E+03      5.80000E+01
      1.18900E-07      0.00000E+00      4.85000E+03      6.50000E+01
      1.33300E-07      0.00000E+00      4.79000E+03      7.50000E+01
      1.49600E-07      0.00000E+00      4.59000E+03      8.50000E+01
      1.67900E-07      0.00000E+00      4.41000E+03      9.70000E+01
      1.88400E-07      0.00000E+00      4.37000E+03      1.10000E+02
      2.11300E-07      0.00000E+00      3.86000E+03      1.20000E+02
      2.37100E-07      0.00000E+00      3.47000E+03      1.20000E+02
      2.66100E-07      0.00000E+00      2.89000E+03      1.20000E+02
      2.98500E-07      0.00000E+00      2.53000E+03      1.10000E+02
      3.35000E-07      0.00000E+00      2.13000E+03      1.10000E+02
      3.75800E-07      0.00000E+00      1.60000E+03      9.80000E+01
      4.21700E-07      0.00000E+00      1.48000E+03      9.40000E+01
      4.73200E-07      0.00000E+00      1.18000E+03      8.70000E+01
      5.30900E-07      0.00000E+00      9.76000E+02      8.30000E+01
      5.95700E-07      0.00000E+00      1.10000E+03      8.40000E+01
      6.68300E-07      0.00000E+00      1.13000E+03      8.50000E+01
      7.49900E-07      0.00000E+00      8.09000E+02      7.60000E+01
      8.41400E-07      0.00000E+00      7.56000E+02      7.40000E+01
      9.44100E-07      0.00000E+00      7.44000E+02      7.30000E+01
      1.05900E-06      0.00000E+00      6.22000E+02      7.10000E+01
      1.18900E-06      0.00000E+00      4.77000E+02      6.50000E+01
      1.33400E-06      0.00000E+00      4.15000E+02      6.20000E+01
      1.49600E-06      0.00000E+00      4.58000E+02      6.20000E+01
      1.67900E-06      0.00000E+00      3.96000E+02      5.80000E+01
      1.88400E-06      0.00000E+00      3.35000E+02      5.60000E+01
      2.11400E-06      0.00000E+00      3.51000E+02      5.40000E+01
      2.37100E-06      0.00000E+00      2.74000E+02      5.20000E+01
      2.66100E-06      0.00000E+00      1.64000E+02      4.70000E+01
      2.98500E-06      0.00000E+00      2.76000E+02      5.00000E+01
      3.35000E-06      0.00000E+00      4.69000E+02      5.50000E+01
      3.75800E-06      0.00000E+00      2.16000E+02      4.70000E+01
      4.21700E-06      0.00000E+00      2.28000E+02      4.60000E+01
      4.73200E-06      0.00000E+00      1.48000E+02      4.00000E+01
      5.30900E-06      0.00000E+00      1.44000E+02      4.20000E+01
      5.95700E-06      0.00000E+00      1.67000E+02      4.00000E+01
      6.68300E-06      0.00000E+00      1.21000E+02      3.80000E+01
      7.49900E-06      0.00000E+00      9.07000E+01      3.40000E+01
      8.41400E-06      0.00000E+00      5.90000E+01      3.10000E+01
      9.44100E-06      0.00000E+00      1.00000E+02      3.30000E+01
      1.05900E-05      0.00000E+00      1.12000E+02      3.30000E+01
      1.18900E-05      0.00000E+00      1.98000E+02      3.60000E+01
      1.33400E-05      0.00000E+00      1.06000E+02      3.20000E+01
      1.49600E-05      0.00000E+00      1.20000E+02      3.20000E+01
      1.67900E-05      0.00000E+00      1.18000E+02      3.20000E+01
      1.88400E-05      0.00000E+00      1.40000E+02      3.20000E+01
      2.11400E-05      0.00000E+00      8.64000E+01      2.90000E+01
      2.37100E-05      0.00000E+00      1.36000E+02      3.10000E+01
      2.66100E-05      0.00000E+00      9.58000E+01      2.80000E+01
      2.98500E-05      0.00000E+00      8.23000E+01      2.90000E+01
      3.35000E-05      0.00000E+00      7.90000E+01      2.50000E+01
      3.75800E-05      0.00000E+00      5.96000E+01      2.50000E+01
