# entry-subent-pointer  : 33159-005-0 
# EXFOR reaction        : ['96-CM-244', ['N,F'], 'MASS,CHN,FY,,EPI'] 
# incident energy       : 5.0000e-07 MeV 
# target                : Cm-244 
# product               : 83.0 <= A <= 158.0 
# level energy          : - 
# MF-MT number          : 8 - 459 
# first author          : H.Naik 
# institute             : (3INDTRM): Bhabha Atomic Research Centre (BARC), Trombay, Mumbai 
# reference             : (J,EPJ/A,57,176,2021) 
# year                  : 2021 
# facility              : (REAC): Reactor 
# git                   : https://github.com/IAEA-NDS/exfor_master/blob/main/exforall/331/33159.x4 
# nds                   : https://nds.iaea.org/EXFOR/33159
#
# Charge(No Dim.)    Mass(No Dim.)  Isomer(No Dim.)    Yield(%/fiss)   dYield(%/fiss)
                              83.0                       1.77000E-03      3.40000E-04
                              84.0                       2.55000E-03      1.20000E-04
                              84.0                       2.47000E-03      1.20000E-04
                              85.0                       3.94000E-03      9.20000E-04
                              86.0                       4.71000E-03      5.40000E-04
                              87.0                       7.71000E-03      8.70000E-04
                              87.0                       6.82000E-03      5.90000E-04
                              88.0                       8.68000E-03      3.00000E-04
                              89.0                       1.29700E-02      4.30000E-04
                              89.0                       1.08100E-02      3.40000E-04
                              89.0                       1.13300E-02      6.20000E-04
                              90.0                       1.96100E-02      1.49000E-03
                              90.0                       1.96100E-02      7.40000E-04
                              90.0                       1.45100E-02      4.30000E-04
                              91.0                       1.80500E-02      1.53000E-03
                              91.0                       1.67800E-02      1.36000E-03
                              91.0                       1.65400E-02      1.72000E-03
                              92.0                       2.03000E-02      4.68000E-03
                              92.0                       2.05900E-02      3.10000E-04
                              93.0                       2.61600E-02      1.93000E-03
                              93.0                       2.65300E-02      3.69000E-03
                              93.0                       2.44300E-02      2.70000E-04
                              93.0                       2.43600E-02      2.32000E-03
                              94.0                       3.18100E-02      9.00000E-04
                              94.0                       2.65400E-02      1.68000E-03
                              95.0                       3.04600E-02      8.30000E-04
                              95.0                       2.93600E-02      3.57000E-03
                              95.0                       3.33200E-02      2.32000E-03
                              97.0                       4.17800E-02      1.26000E-03
                              99.0                       5.14100E-02      1.49000E-03
                              99.0                       5.16400E-02      2.34000E-03
                              99.0                       5.10100E-02      6.50000E-04
                             101.0                       6.23500E-02      7.40000E-04
                             101.0                       6.19300E-02      3.59000E-03
                             102.0                       6.85200E-02      2.32000E-03
                             103.0                       5.97700E-02      2.98000E-03
                             103.0                       6.74400E-02      1.57000E-03
                             104.0                       6.48900E-02      2.21000E-03
                             105.0                       6.29900E-02      1.77000E-03
                             105.0                       6.41900E-02      9.10000E-04
                             105.0                       6.59100E-02      7.80000E-04
                             106.0                       5.81800E-02      4.93000E-03
                             107.0                       5.55800E-02      3.15000E-03
                             108.0                       4.48000E-02      4.30000E-04
                             109.0                       3.44100E-02      8.80000E-04
                             111.0                       1.86200E-02      2.56000E-03
                             112.0                       1.23800E-02      8.90000E-04
                             113.0                       8.95000E-03      3.70000E-04
                             115.0                       3.65000E-03      8.50000E-04
                             116.0                       2.36000E-03      2.30000E-04
                             117.0                       1.47000E-03      8.00000E-05
                             119.0                       8.40000E-04      8.00000E-05
                             123.0                       8.90000E-04      9.00000E-05
                             125.0                       1.83000E-03      2.40000E-04
                             127.0                       5.01000E-03      5.60000E-04
                             127.0                       4.86000E-03      2.60000E-04
                             127.0                       5.08000E-03      3.70000E-04
                             128.0                       8.95000E-03      4.80000E-04
                             129.0                       1.55000E-02      1.36000E-03
                             129.0                       1.21300E-02      4.10000E-04
                             130.0                       2.73400E-02      3.94000E-03
                             130.0                       1.69400E-02      1.68000E-03
                             131.0                       2.60800E-02      1.69000E-03
                             131.0                       2.79100E-02      2.16000E-03
                             132.0                       5.98600E-02      7.04000E-03
                             132.0                       3.62900E-02      3.05000E-03
                             132.0                       3.63000E-02      1.09000E-03
                             132.0                       3.59700E-02      8.90000E-04
                             133.0                       6.30900E-02      3.94000E-03
                             133.0                       5.21800E-02      2.04000E-03
                             133.0                       4.11300E-02      2.05000E-03
                             134.0                       7.19300E-02      4.25000E-03
                             134.0                       7.65200E-02      4.54000E-03
                             134.0                       7.34400E-02      4.25000E-03
                             134.0                       5.71300E-02      1.25000E-03
                             135.0                       6.14700E-02      3.71000E-03
                             135.0                       6.13900E-02      2.87000E-03
                             135.0                       6.29900E-02      3.60000E-03
                             136.0                       7.21500E-02      6.44000E-03
                             137.0                       6.96300E-02      5.24000E-03
                             138.0                       7.39200E-02      1.93000E-03
                             138.0                       7.45600E-02      3.90000E-03
                             138.0                       7.33400E-02      2.51000E-03
                             139.0                       6.66800E-02      5.20000E-04
                             139.0                       6.50700E-02      2.00000E-04
                             140.0                       6.39800E-02      4.78000E-03
                             140.0                       6.37200E-02      1.53000E-03
                             141.0                       5.99700E-02      2.45000E-03
                             141.0                       5.97400E-02      1.34000E-03
                             141.0                       5.88600E-02      7.50000E-04
                             141.0                       5.95300E-02      3.70000E-04
                             141.0                       5.93600E-02      2.51000E-03
                             142.0                       5.50300E-02      2.26000E-03
                             142.0                       5.33800E-02      5.40000E-04
                             142.0                       5.46700E-02      7.40000E-04
                             142.0                       5.38300E-02      1.53000E-03
                             142.0                       5.33000E-02      1.05000E-03
                             143.0                       4.77500E-02      1.30000E-03
                             144.0                       3.96700E-02      2.31000E-03
                             144.0                       3.80500E-02      2.57000E-03
                             144.0                       4.06900E-02      2.09000E-03
                             145.0                       3.73500E-02      1.09000E-03
                             146.0                       3.24500E-02      3.18000E-03
                             146.0                       3.13600E-02      2.16000E-03
                             146.0                       3.27900E-02      3.40000E-04
                             146.0                       3.18400E-02      1.07000E-03
                             147.0                       2.94400E-02      7.70000E-04
                             147.0                       2.87700E-02      9.50000E-04
                             147.0                       2.82200E-02      3.30000E-04
                             148.0                       2.66200E-02      2.16000E-03
                             149.0                       2.04900E-02      1.18000E-03
                             149.0                       2.06100E-02      1.04000E-03
                             151.0                       1.52900E-02      1.24000E-03
                             151.0                       1.49200E-02      5.70000E-04
                             153.0                       9.31000E-03      6.10000E-04
                             153.0                       9.27000E-03      6.10000E-04
                             155.0                       5.45000E-03      3.60000E-04
                             156.0                       3.72000E-03      5.80000E-04
                             157.0                       2.57000E-03      2.40000E-04
                             157.0                       2.63000E-03      2.60000E-04
                             158.0                       1.78000E-03      2.70000E-04
