# entry-subent-pointer  : O0692-003-0 
# EXFOR reaction        : ['2-HE-4', ['D,G'], '3-LI-6,,SIG,,SFC,DERIV'] 
# incident energy       : 4.5000e-02 MeV - 1.9470e+00 MeV 
# target                : He-4 
# product               : Li-6 
# level energy          : - 
# MF-MT number          : 3 - 102 
# first author          : F.Hammache 
# institute             : (2FR CSN): Centre Sci. Nuclear et Sci. Matiere (CSNSM), Orsay 
# reference             : (C,2006CERN,,(013),2006) 
# year                  : 2006 
# facility              : (SYNCH): Synchrotron 
# git                   : https://github.com/IAEA-NDS/exfor_master/blob/main/exforall/O06/O0692.x4 
# nds                   : https://nds.iaea.org/EXFOR/O0692
#
#       E_in(MeV)       dE_in(MeV)            XS(B)           dXS(B)
      4.50000E-02      0.00000E+00      2.46100E-03      7.84700E-04
      1.49000E-01      0.00000E+00      6.91800E-03      1.05800E-03
      2.49000E-01      0.00000E+00      1.09800E-02      1.50700E-03
      3.45000E-01      0.00000E+00      1.39600E-02      1.63400E-03
      4.49000E-01      0.00000E+00      1.91100E-02      2.31500E-03
      5.44000E-01      0.00000E+00      2.92200E-02      4.00900E-03
      6.48000E-01      0.00000E+00      9.52100E-02      1.11500E-02
      7.48000E-01      0.00000E+00      7.09000E-02      6.85200E-03
      8.48000E-01      0.00000E+00      2.57100E-02      3.54400E-03
      9.48000E-01      0.00000E+00      3.26900E-02      3.82700E-03
      1.04800E+00      0.00000E+00      4.39400E-02      5.14300E-03
      1.14800E+00      0.00000E+00      4.91000E-02      1.86600E-03
      1.35200E+00      0.00000E+00      7.10700E-02      6.86700E-03
      1.44800E+00      0.00000E+00      8.24100E-02      7.96500E-03
      1.54700E+00      0.00000E+00      1.01000E-01      1.18200E-02
      1.64700E+00      0.00000E+00      1.10800E-01      1.52700E-02
      1.74700E+00      0.00000E+00      1.15000E-01      1.58500E-02
      1.84700E+00      0.00000E+00      1.49000E-01      2.05400E-02
      1.94700E+00      0.00000E+00      1.66500E-01      1.60900E-02
