# entry-subent-pointer  : 41753-002-0 
# EXFOR reaction        : (92-U-238(N,TOT),,SIG) 
# incident energy       : 1.5193e+00 MeV - 2.0018e+00 MeV 
# target                : U-238 
# product               : - 
# level energy          : - 
# MF-MT number          : 3 - 1 
# first author          : Morozov 
# institute             : (4RUSKUR): National Issl.Tsentr "Kurchatovskii Institut", Moskva 
# reference             : ((J,YK,,(1/50),11,1983)=(R,INDC(CCP)-213,11,1983)) 
# year                  : 1983 
# facility              : (ACCEL): Accelerator 
# git                   : https://github.com/IAEA-NDS/exfor_master/blob/main/exforall/417/41753.x4 
# nds                   : https://nds.iaea.org/EXFOR/41753
#
#       E_in(MeV)         dE_in(MeV)        XS(B)             dXS(B)
        1.5193E+00        4.6000E-04        7.0860E+00        0.0000E+00
        1.5232E+00        4.6000E-04        7.1462E+00        0.0000E+00
        1.5288E+00        4.6000E-04        7.2623E+00        0.0000E+00
        1.5319E+00        4.6000E-04        7.1419E+00        0.0000E+00
        1.5375E+00        4.6000E-04        7.1290E+00        0.0000E+00
        1.5405E+00        4.6000E-04        7.1418E+00        0.0000E+00
        1.5457E+00        4.6000E-04        7.1762E+00        0.0000E+00
        1.5488E+00        4.6000E-04        7.0816E+00        0.0000E+00
        1.5544E+00        4.6000E-04        7.1203E+00        0.0000E+00
        1.5570E+00        4.6000E-04        7.1332E+00        0.0000E+00
        1.5635E+00        4.6000E-04        7.1977E+00        0.0000E+00
        1.5670E+00        4.6000E-04        7.2020E+00        0.0000E+00
        1.5718E+00        4.6000E-04        7.2235E+00        0.0000E+00
        1.5748E+00        4.6000E-04        7.1718E+00        0.0000E+00
        1.5804E+00        4.6000E-04        7.2019E+00        0.0000E+00
        1.5835E+00        4.6000E-04        7.3266E+00        0.0000E+00
        1.5878E+00        4.6000E-04        7.2793E+00        0.0000E+00
        1.5904E+00        4.6000E-04        7.1202E+00        0.0000E+00
        1.5947E+00        4.6000E-04        7.2750E+00        0.0000E+00
        1.5969E+00        4.6000E-04        7.3395E+00        0.0000E+00
        1.5982E+00        4.6000E-04        7.2922E+00        0.0000E+00
        1.5995E+00        4.6000E-04        7.0728E+00        0.0000E+00
        1.6025E+00        4.6000E-04        7.0169E+00        0.0000E+00
        1.6038E+00        4.6000E-04        7.0384E+00        0.0000E+00
        1.6051E+00        4.6000E-04        7.0599E+00        0.0000E+00
        1.6069E+00        4.6000E-04        7.0126E+00        0.0000E+00
        1.6095E+00        4.6000E-04        7.1932E+00        0.0000E+00
        1.6112E+00        4.6000E-04        7.1502E+00        0.0000E+00
        1.6129E+00        4.6000E-04        7.1889E+00        0.0000E+00
        1.6142E+00        4.6000E-04        7.2061E+00        0.0000E+00
        1.6164E+00        4.6000E-04        7.1416E+00        0.0000E+00
        1.6186E+00        4.6000E-04        7.3523E+00        0.0000E+00
        1.6207E+00        4.6000E-04        7.2061E+00        0.0000E+00
        1.6251E+00        4.6000E-04        7.3566E+00        0.0000E+00
        1.6281E+00        4.6000E-04        7.2017E+00        0.0000E+00
        1.6324E+00        4.6000E-04        7.2662E+00        0.0000E+00
        1.6359E+00        4.6000E-04        7.0985E+00        0.0000E+00
        1.6402E+00        4.6000E-04        7.1501E+00        0.0000E+00
        1.6433E+00        4.6000E-04        7.3264E+00        0.0000E+00
        1.6480E+00        4.6000E-04        7.3092E+00        0.0000E+00
        1.6506E+00        4.6000E-04        7.0468E+00        0.0000E+00
        1.6550E+00        4.6000E-04        7.3221E+00        0.0000E+00
        1.6589E+00        4.6000E-04        7.0210E+00        0.0000E+00
        1.6628E+00        4.6000E-04        7.1242E+00        0.0000E+00
        1.6658E+00        4.6000E-04        7.1715E+00        0.0000E+00
        1.6706E+00        4.6000E-04        7.1973E+00        0.0000E+00
        1.6732E+00        4.6000E-04        7.1027E+00        0.0000E+00
        1.6758E+00        4.6000E-04        7.4209E+00        0.0000E+00
        1.6779E+00        4.6000E-04        7.1758E+00        0.0000E+00
        1.6793E+00        4.6000E-04        7.3822E+00        0.0000E+00
        1.6810E+00        4.6000E-04        7.1930E+00        0.0000E+00
        1.6836E+00        4.6000E-04        7.2704E+00        0.0000E+00
        1.6862E+00        4.6000E-04        7.1069E+00        0.0000E+00
        1.6910E+00        4.6000E-04        7.3650E+00        0.0000E+00
        1.6940E+00        4.6000E-04        7.2445E+00        0.0000E+00
        1.6988E+00        4.6000E-04        7.2789E+00        0.0000E+00
        1.7018E+00        4.6000E-04        7.2015E+00        0.0000E+00
        1.7061E+00        4.6000E-04        7.1886E+00        0.0000E+00
        1.7100E+00        4.6000E-04        7.2789E+00        0.0000E+00
        1.7139E+00        4.6000E-04        7.3004E+00        0.0000E+00
        1.7178E+00        4.6000E-04        7.2444E+00        0.0000E+00
        1.7213E+00        4.6000E-04        7.1197E+00        0.0000E+00
        1.7256E+00        4.6000E-04        7.3218E+00        0.0000E+00
        1.7300E+00        4.6000E-04        7.3648E+00        0.0000E+00
        1.7334E+00        4.6000E-04        7.1584E+00        0.0000E+00
        1.7373E+00        4.6000E-04        7.2315E+00        0.0000E+00
        1.7408E+00        4.6000E-04        7.1841E+00        0.0000E+00
        1.7464E+00        4.6000E-04        7.3390E+00        0.0000E+00
        1.7495E+00        4.6000E-04        7.2787E+00        0.0000E+00
        1.7529E+00        4.6000E-04        7.2744E+00        0.0000E+00
        1.7560E+00        4.6000E-04        7.3088E+00        0.0000E+00
        1.7607E+00        4.6000E-04        7.2228E+00        0.0000E+00
        1.7633E+00        4.6000E-04        7.3604E+00        0.0000E+00
        1.7686E+00        4.6000E-04        7.4120E+00        0.0000E+00
        1.7712E+00        4.6000E-04        7.3819E+00        0.0000E+00
        1.7750E+00        4.6000E-04        7.2313E+00        0.0000E+00
        1.7794E+00        4.6000E-04        7.3689E+00        0.0000E+00
        1.7833E+00        4.6000E-04        7.1625E+00        0.0000E+00
        1.7876E+00        4.6000E-04        7.2270E+00        0.0000E+00
        1.7920E+00        4.6000E-04        7.2313E+00        0.0000E+00
        1.7954E+00        4.6000E-04        7.2141E+00        0.0000E+00
        1.7998E+00        4.6000E-04        7.3818E+00        0.0000E+00
        1.8037E+00        4.6000E-04        7.2871E+00        0.0000E+00
        1.8080E+00        4.6000E-04        7.1194E+00        0.0000E+00
        1.8119E+00        4.6000E-04        7.3473E+00        0.0000E+00
        1.8158E+00        4.6000E-04        7.3172E+00        0.0000E+00
        1.8188E+00        4.6000E-04        7.2699E+00        0.0000E+00
        1.8240E+00        4.6000E-04        7.3989E+00        0.0000E+00
        1.8271E+00        4.6000E-04        7.3258E+00        0.0000E+00
        1.8314E+00        4.6000E-04        7.2913E+00        0.0000E+00
        1.8353E+00        4.6000E-04        7.4892E+00        0.0000E+00
        1.8401E+00        4.6000E-04        7.3945E+00        0.0000E+00
        1.8427E+00        4.6000E-04        7.3343E+00        0.0000E+00
        1.8479E+00        4.6000E-04        7.2225E+00        0.0000E+00
        1.8518E+00        4.6000E-04        7.3945E+00        0.0000E+00
        1.8561E+00        4.6000E-04        7.2525E+00        0.0000E+00
        1.8596E+00        4.6000E-04        7.3343E+00        0.0000E+00
        1.8635E+00        4.6000E-04        7.3256E+00        0.0000E+00
        1.8678E+00        4.6000E-04        7.2654E+00        0.0000E+00
        1.8717E+00        4.6000E-04        7.2869E+00        0.0000E+00
        1.8747E+00        4.6000E-04        7.3385E+00        0.0000E+00
        1.8769E+00        4.6000E-04        7.3858E+00        0.0000E+00
        1.8786E+00        4.6000E-04        7.3256E+00        0.0000E+00
        1.8804E+00        4.6000E-04        7.2353E+00        0.0000E+00
        1.8834E+00        4.6000E-04        7.4675E+00        0.0000E+00
        1.8878E+00        4.6000E-04        7.3299E+00        0.0000E+00
        1.8904E+00        4.6000E-04        7.3126E+00        0.0000E+00
        1.8947E+00        4.6000E-04        7.4115E+00        0.0000E+00
        1.8986E+00        4.6000E-04        7.3169E+00        0.0000E+00
        1.9029E+00        4.6000E-04        7.4459E+00        0.0000E+00
        1.9064E+00        4.6000E-04        7.5577E+00        0.0000E+00
        1.9107E+00        4.6000E-04        7.4029E+00        0.0000E+00
        1.9133E+00        4.6000E-04        7.3470E+00        0.0000E+00
        1.9151E+00        4.6000E-04        7.4932E+00        0.0000E+00
        1.9190E+00        4.6000E-04        7.1921E+00        0.0000E+00
        1.9220E+00        4.6000E-04        7.3082E+00        0.0000E+00
        1.9246E+00        4.6000E-04        7.3125E+00        0.0000E+00
        1.9276E+00        4.6000E-04        7.4716E+00        0.0000E+00
        1.9298E+00        4.6000E-04        7.4630E+00        0.0000E+00
        1.9324E+00        4.6000E-04        7.5749E+00        0.0000E+00
        1.9350E+00        4.6000E-04        7.2652E+00        0.0000E+00
        1.9376E+00        4.6000E-04        7.2394E+00        0.0000E+00
        1.9398E+00        4.6000E-04        7.2738E+00        0.0000E+00
        1.9432E+00        4.6000E-04        7.5103E+00        0.0000E+00
        1.9467E+00        4.6000E-04        7.2694E+00        0.0000E+00
        1.9484E+00        4.6000E-04        7.5920E+00        0.0000E+00
        1.9515E+00        4.6000E-04        7.4415E+00        0.0000E+00
        1.9545E+00        4.6000E-04        7.4672E+00        0.0000E+00
        1.9562E+00        4.6000E-04        7.4457E+00        0.0000E+00
        1.9588E+00        4.6000E-04        7.4500E+00        0.0000E+00
        1.9623E+00        4.6000E-04        7.5790E+00        0.0000E+00
        1.9645E+00        4.6000E-04        7.5102E+00        0.0000E+00
        1.9671E+00        4.6000E-04        7.3898E+00        0.0000E+00
        1.9710E+00        4.6000E-04        7.3511E+00        0.0000E+00
        1.9719E+00        4.6000E-04        7.6650E+00        0.0000E+00
        1.9753E+00        4.6000E-04        7.4500E+00        0.0000E+00
        1.9797E+00        4.6000E-04        7.4241E+00        0.0000E+00
        1.9805E+00        4.6000E-04        7.5790E+00        0.0000E+00
        1.9844E+00        4.6000E-04        7.5188E+00        0.0000E+00
        1.9875E+00        4.6000E-04        7.6005E+00        0.0000E+00
        1.9892E+00        4.6000E-04        7.4026E+00        0.0000E+00
        1.9931E+00        4.6000E-04        7.4198E+00        0.0000E+00
        1.9966E+00        4.6000E-04        7.4628E+00        0.0000E+00
        1.9970E+00        4.6000E-04        7.3424E+00        0.0000E+00
        2.0018E+00        4.6000E-04        7.5144E+00        0.0000E+00
