# entry-subent-pointer  : 41437-002-0 
# EXFOR reaction        : ['22-TI-48', ['N,G'], '22-TI-49,PAR,SIG'] 
# incident energy       : 6.5800e-03 MeV - 7.9400e-02 MeV 
# target                : Ti-48 
# product               : Ti-49 
# level energy          : 1.3816e+00 MeV 
# MF-MT number          : 3 - 1 
# first author          : A.V.Voinov 
# institute             : (4ZZZDUB): Joint Institute for Nuclear Research (JINR), Dubna 
# reference             : (J,PAN,66,(1),44,2003) 
# year                  : 2003 
# facility              : (VDG): Van de Graaff 
# git                   : https://github.com/IAEA-NDS/exfor_master/blob/main/exforall/414/41437.x4 
# nds                   : https://nds.iaea.org/EXFOR/41437
#
#       E_in(MeV)       dE_in(MeV)            XS(B)           dXS(B)
      6.58000E-03      8.54000E-05      6.41400E-04      9.74000E-04
      7.79000E-03      8.54000E-05      2.94800E-03      0.00000E+00
      9.20000E-03      8.54000E-05      4.03900E-03      7.30000E-04
      1.03000E-02      8.54000E-05      6.15600E-03      6.23000E-04
      1.13000E-02      8.54000E-05      6.91900E-03      6.21000E-04
      1.28000E-02      8.54000E-05      6.87400E-03      5.96000E-04
      1.40000E-02      8.54000E-05      6.28500E-03      4.88000E-04
      1.53000E-02      8.54000E-05      6.32000E-03      4.87000E-04
      1.66000E-02      8.54000E-05      4.81200E-03      4.87000E-04
      1.80000E-02      8.54000E-05      4.11600E-03      5.13000E-04
      1.91000E-02      8.54000E-05      3.52700E-03      4.33000E-04
      2.03000E-02      8.54000E-05      3.20900E-03      4.32000E-04
      2.15000E-02      8.54000E-05      3.24300E-03      4.06000E-04
      2.28000E-02      8.54000E-05      2.35800E-03      4.06000E-04
      2.40000E-02      8.54000E-05      2.04000E-03      3.51000E-04
      2.56000E-02      8.54000E-05      2.02200E-03      3.52000E-04
      2.66000E-02      8.54000E-05      1.81100E-03      2.70000E-04
      2.80000E-02      8.54000E-05      1.35900E-03      3.78000E-04
      2.90000E-02      8.54000E-05      1.68900E-03      3.51000E-04
      3.04000E-02      8.54000E-05      1.67000E-03      3.24000E-04
      3.18000E-02      8.54000E-05      1.70600E-03      3.25000E-04
      3.27000E-02      8.54000E-05      2.46900E-03      2.97000E-04
      3.43000E-02      8.54000E-05      2.69400E-03      3.51000E-04
      3.52000E-02      8.54000E-05      3.13200E-03      3.25000E-04
      3.65000E-02      8.54000E-05      3.00400E-03      2.98000E-04
      3.80000E-02      8.54000E-05      2.82300E-03      2.97000E-04
      3.91000E-02      8.54000E-05      2.26100E-03      2.98000E-04
      4.04000E-02      8.54000E-05      1.32200E-03      2.71000E-04
      4.16000E-02      8.54000E-05      1.16600E-03      2.71000E-04
      4.26000E-02      8.54000E-05      5.76000E-04      2.99000E-04
      4.39000E-02      8.54000E-05      6.10800E-04      2.70000E-04
      4.50000E-02      8.54000E-05      5.90400E-04      2.70000E-04
      4.63000E-02      8.54000E-05      9.76300E-04      3.25000E-04
      4.77000E-02      8.54000E-05      8.22400E-04      2.98000E-04
      4.91000E-02      8.54000E-05      6.67600E-04      3.24000E-04
      5.02000E-02      8.54000E-05      8.36400E-04      2.42000E-04
      5.14000E-02      8.54000E-05      1.11400E-03      2.71000E-04
      5.27000E-02      8.54000E-05      1.17600E-03      2.70000E-04
      5.39000E-02      8.54000E-05      1.20900E-03      3.78000E-04
      5.55000E-02      8.54000E-05      1.11000E-03      3.51000E-04
      5.67000E-02      8.54000E-05      8.46400E-04      2.98000E-04
      5.78000E-02      8.54000E-05      5.27800E-04      2.98000E-04
      5.93000E-02      8.54000E-05      4.55800E-04      0.00000E+00
      5.94000E-02      8.54000E-05      7.79400E-04      0.00000E+00
      6.14000E-02      8.54000E-05      3.05100E-04      3.24000E-04
      6.29000E-02      8.54000E-05      2.59300E-04      3.78000E-04
      6.40000E-02      8.54000E-05      5.63300E-04      2.15000E-04
      6.53000E-02      8.54000E-05      3.81400E-04      3.77000E-04
      6.79000E-02      8.54000E-05      4.23300E-04      3.24000E-04
      6.93000E-02      8.54000E-05      5.12700E-04      2.97000E-04
      7.05000E-02      8.54000E-05      5.73400E-04      2.43000E-04
      7.15000E-02      8.54000E-05      3.35800E-04      4.33000E-04
      7.27000E-02      8.54000E-05      4.50600E-04      2.97000E-04
      7.40000E-02      8.54000E-05      7.83200E-04      3.78000E-04
      7.55000E-02      8.54000E-05      5.21100E-04      3.24000E-04
      7.78000E-02      8.54000E-05      6.15400E-04      2.98000E-04
      7.94000E-02      8.54000E-05      7.05600E-04      2.42000E-04
