# entry-subent-pointer  : 20437-006-0 
# EXFOR reaction        : (63-EU-151(N,G)63-EU-152,,SIG) 
# incident energy       : 1.0082e-08 MeV - 1.5743e-06 MeV 
# target                : Eu-151 
# product               : Eu-152 
# level energy          : - 
# MF-MT number          : 3 - 102 
# first author          : Widder 
# institute             : (2SWTWUR): Eidgenossisches Institute fuer Reakt.Forsch., Wuerenlingen 
# reference             : ((R,EIR-217,1975)=(R,INDC(SWT)-009,1975)) 
# year                  : 1975 
# facility              : (REAC): Reactor 
# git                   : https://github.com/IAEA-NDS/exfor_master/blob/main/exforall/204/20437.x4 
# nds                   : https://nds.iaea.org/EXFOR/20437
#
#       E_in(MeV)         dE_in(MeV)        XS(B)             dXS(B)
        1.0082E-08        0.0000E+00        1.8792E+04        1.1050E+03
        1.0200E-08        0.0000E+00        1.8690E+04        1.0680E+03
        1.0320E-08        0.0000E+00        1.8590E+04        1.0340E+03
        1.0442E-08        0.0000E+00        1.8479E+04        1.0020E+03
        1.0567E-08        0.0000E+00        1.8331E+04        9.7510E+02
        1.0693E-08        0.0000E+00        1.8184E+04        9.5240E+02
        1.0822E-08        0.0000E+00        1.8045E+04        9.3500E+02
        1.0953E-08        0.0000E+00        1.7921E+04        9.2400E+02
        1.1086E-08        0.0000E+00        1.7798E+04        9.1300E+02
        1.1222E-08        0.0000E+00        1.7673E+04        9.0220E+02
        1.1361E-08        0.0000E+00        1.7547E+04        9.4520E+02
        1.1502E-08        0.0000E+00        1.7422E+04        9.1630E+02
        1.1646E-08        0.0000E+00        1.7295E+04        8.4430E+02
        1.1792E-08        0.0000E+00        1.7168E+04        9.3770E+02
        1.1941E-08        0.0000E+00        1.7041E+04        9.0020E+02
        1.2093E-08        0.0000E+00        1.6912E+04        8.8940E+02
        1.2248E-08        0.0000E+00        1.6783E+04        8.9530E+02
        1.2406E-08        0.0000E+00        1.6653E+04        1.0180E+03
        1.2567E-08        0.0000E+00        1.6523E+04        1.0460E+03
        1.2731E-08        0.0000E+00        1.6391E+04        1.0330E+03
        1.2899E-08        0.0000E+00        1.6259E+04        9.5110E+02
        1.3070E-08        0.0000E+00        1.6125E+04        9.3600E+02
        1.3244E-08        0.0000E+00        1.5991E+04        9.3110E+02
        1.3421E-08        0.0000E+00        1.5857E+04        9.2610E+02
        1.3603E-08        0.0000E+00        1.5721E+04        7.2560E+02
        1.3788E-08        0.0000E+00        1.5584E+04        6.8390E+02
        1.3976E-08        0.0000E+00        1.5447E+04        7.3550E+02
        1.4169E-08        0.0000E+00        1.5308E+04        7.1040E+02
        1.4366E-08        0.0000E+00        1.5167E+04        6.8390E+02
        1.4567E-08        0.0000E+00        1.5026E+04        7.7160E+02
        1.4772E-08        0.0000E+00        1.4884E+04        7.4270E+02
        1.4981E-08        0.0000E+00        1.4741E+04        7.3860E+02
        1.5195E-08        0.0000E+00        1.4597E+04        6.9710E+02
        1.5413E-08        0.0000E+00        1.4451E+04        6.4360E+02
        1.5637E-08        0.0000E+00        1.4304E+04        6.3530E+02
        1.5865E-08        0.0000E+00        1.4155E+04        6.4710E+02
        1.6098E-08        0.0000E+00        1.4005E+04        5.2510E+02
        1.6336E-08        0.0000E+00        1.3855E+04        5.4520E+02
        1.6580E-08        0.0000E+00        1.3702E+04        5.2580E+02
        1.6829E-08        0.0000E+00        1.3547E+04        5.2110E+02
        1.7084E-08        0.0000E+00        1.3392E+04        4.9740E+02
        1.7345E-08        0.0000E+00        1.3234E+04        5.0080E+02
        1.7611E-08        0.0000E+00        1.3076E+04        4.6210E+02
        1.7884E-08        0.0000E+00        1.2916E+04        4.5600E+02
        1.8164E-08        0.0000E+00        1.2753E+04        4.1300E+02
        1.8449E-08        0.0000E+00        1.2590E+04        4.1750E+02
        1.8742E-08        0.0000E+00        1.2425E+04        4.1170E+02
        1.9042E-08        0.0000E+00        1.2257E+04        4.0380E+02
        1.9349E-08        0.0000E+00        1.2088E+04        3.7980E+02
        1.9663E-08        0.0000E+00        1.1918E+04        4.1250E+02
        1.9985E-08        0.0000E+00        1.1746E+04        4.0150E+02
        2.0315E-08        0.0000E+00        1.1572E+04        3.9890E+02
        2.0654E-08        0.0000E+00        1.1396E+04        3.8090E+02
        2.1001E-08        0.0000E+00        1.1218E+04        3.6710E+02
        2.1356E-08        0.0000E+00        1.1039E+04        3.7110E+02
        2.1721E-08        0.0000E+00        1.0859E+04        3.7160E+02
        2.2095E-08        0.0000E+00        1.0676E+04        3.1550E+02
        2.2479E-08        0.0000E+00        1.0492E+04        3.1000E+02
        2.2873E-08        0.0000E+00        1.0307E+04        3.0100E+02
        2.3278E-08        0.0000E+00        1.0120E+04        2.9450E+02
        2.3693E-08        0.0000E+00        9.9316E+03        2.8930E+02
        2.4120E-08        0.0000E+00        9.7422E+03        2.9100E+02
        2.4558E-08        0.0000E+00        9.5517E+03        2.7640E+02
        2.5008E-08        0.0000E+00        9.3601E+03        2.7830E+02
        2.5471E-08        0.0000E+00        9.1679E+03        2.9960E+02
        2.5947E-08        0.0000E+00        8.9750E+03        2.8910E+02
        2.6436E-08        0.0000E+00        8.7815E+03        2.9110E+02
        2.6939E-08        0.0000E+00        8.5877E+03        2.8680E+02
        2.7457E-08        0.0000E+00        8.3942E+03        2.7400E+02
        2.7990E-08        0.0000E+00        8.2006E+03        2.6530E+02
        2.8538E-08        0.0000E+00        7.9997E+03        2.5040E+02
        2.9103E-08        0.0000E+00        7.8150E+03        2.3360E+02
        2.9684E-08        0.0000E+00        7.6386E+03        2.2850E+02
        3.0283E-08        0.0000E+00        7.4635E+03        2.1050E+02
        3.0901E-08        0.0000E+00        7.2899E+03        2.0350E+02
        3.1537E-08        0.0000E+00        7.1175E+03        1.9360E+02
        3.2194E-08        0.0000E+00        6.9463E+03        2.4350E+02
        3.2871E-08        0.0000E+00        6.7769E+03        2.3690E+02
        3.3570E-08        0.0000E+00        6.6088E+03        2.1690E+02
        3.4291E-08        0.0000E+00        6.4422E+03        2.1520E+02
        3.5036E-08        0.0000E+00        6.2774E+03        2.2260E+02
        3.5805E-08        0.0000E+00        6.1145E+03        2.2950E+02
        3.6600E-08        0.0000E+00        5.9533E+03        2.2180E+02
        3.7422E-08        0.0000E+00        5.7939E+03        1.7950E+02
        3.8272E-08        0.0000E+00        5.6366E+03        1.7420E+02
        3.9151E-08        0.0000E+00        5.4813E+03        1.6990E+02
        4.0060E-08        0.0000E+00        5.3279E+03        1.6310E+02
        4.1002E-08        0.0000E+00        5.1767E+03        1.5040E+02
        4.1977E-08        0.0000E+00        5.0276E+03        1.3670E+02
        4.2988E-08        0.0000E+00        4.8808E+03        1.3500E+02
        4.4035E-08        0.0000E+00        4.7365E+03        1.2490E+02
        4.5121E-08        0.0000E+00        4.5946E+03        1.2060E+02
        4.6248E-08        0.0000E+00        4.4548E+03        1.1580E+02
        4.7418E-08        0.0000E+00        4.3177E+03        1.0830E+02
        4.8632E-08        0.0000E+00        4.1831E+03        1.0250E+02
        4.9894E-08        0.0000E+00        4.0511E+03        9.4070E+01
        5.1206E-08        0.0000E+00        3.9217E+03        8.5610E+01
        5.2570E-08        0.0000E+00        3.7949E+03        8.1640E+01
        5.3989E-08        0.0000E+00        3.6710E+03        8.1600E+01
        5.5466E-08        0.0000E+00        3.5498E+03        7.8790E+01
        5.7005E-08        0.0000E+00        3.4314E+03        7.7820E+01
        5.8609E-08        0.0000E+00        3.3160E+03        7.2730E+01
        6.0282E-08        0.0000E+00        3.2035E+03        6.6920E+01
        6.2027E-08        0.0000E+00        3.0938E+03        6.3120E+01
        6.3849E-08        0.0000E+00        2.9874E+03        6.9550E+01
        6.4405E-08        0.0000E+00        2.9564E+03        7.2220E+01
        6.5359E-08        0.0000E+00        2.9047E+03        7.6690E+01
        6.6334E-08        0.0000E+00        2.8538E+03        7.9310E+01
        6.7331E-08        0.0000E+00        2.8037E+03        7.9560E+01
        6.8351E-08        0.0000E+00        2.7543E+03        7.8990E+01
        6.9394E-08        0.0000E+00        2.7058E+03        7.8400E+01
        7.0461E-08        0.0000E+00        2.6582E+03        7.8770E+01
        7.1553E-08        0.0000E+00        2.6114E+03        8.0170E+01
        7.2670E-08        0.0000E+00        2.5654E+03        8.1640E+01
        7.3814E-08        0.0000E+00        2.5202E+03        8.2970E+01
        7.4985E-08        0.0000E+00        2.4758E+03        8.4670E+01
        7.6184E-08        0.0000E+00        2.4323E+03        8.6020E+01
        7.7412E-08        0.0000E+00        2.3897E+03        8.4490E+01
        7.8670E-08        0.0000E+00        2.3479E+03        8.0500E+01
        7.9959E-08        0.0000E+00        2.3069E+03        7.6540E+01
        8.1280E-08        0.0000E+00        2.2668E+03        7.3130E+01
        8.2634E-08        0.0000E+00        2.2276E+03        7.0250E+01
        8.4022E-08        0.0000E+00        2.1894E+03        6.7820E+01
        8.5445E-08        0.0000E+00        2.1522E+03        6.5680E+01
        8.6905E-08        0.0000E+00        2.1158E+03        6.3590E+01
        8.8402E-08        0.0000E+00        2.0803E+03        6.0970E+01
        8.9939E-08        0.0000E+00        2.0458E+03        5.8050E+01
        9.1516E-08        0.0000E+00        2.0123E+03        5.5620E+01
        9.3135E-08        0.0000E+00        1.9798E+03        5.3490E+01
        9.4797E-08        0.0000E+00        1.9482E+03        5.0730E+01
        9.6504E-08        0.0000E+00        1.9177E+03        4.7950E+01
        9.8257E-08        0.0000E+00        1.8883E+03        4.6860E+01
        1.0006E-07        0.0000E+00        1.8598E+03        4.6800E+01
        1.0191E-07        0.0000E+00        1.8325E+03        4.4870E+01
        1.0381E-07        0.0000E+00        1.8063E+03        4.2090E+01
        1.0577E-07        0.0000E+00        1.7812E+03        4.1660E+01
        1.0779E-07        0.0000E+00        1.7572E+03        4.3350E+01
        1.0986E-07        0.0000E+00        1.7345E+03        4.4680E+01
        1.1199E-07        0.0000E+00        1.7130E+03        4.4840E+01
        1.1418E-07        0.0000E+00        1.6927E+03        4.4480E+01
        1.1644E-07        0.0000E+00        1.6737E+03        4.3670E+01
        1.1877E-07        0.0000E+00        1.6561E+03        4.2250E+01
        1.2117E-07        0.0000E+00        1.6398E+03        4.0710E+01
        1.2364E-07        0.0000E+00        1.6250E+03        4.0100E+01
        1.2619E-07        0.0000E+00        1.6117E+03        4.0320E+01
        1.2881E-07        0.0000E+00        1.5999E+03        4.0520E+01
        1.3152E-07        0.0000E+00        1.5897E+03        4.0550E+01
        1.3432E-07        0.0000E+00        1.5813E+03        4.0850E+01
        1.3721E-07        0.0000E+00        1.5748E+03        4.1110E+01
        1.4019E-07        0.0000E+00        1.5696E+03        3.9970E+01
        1.4327E-07        0.0000E+00        1.5668E+03        3.7940E+01
        1.4645E-07        0.0000E+00        1.5665E+03        3.6150E+01
        1.4973E-07        0.0000E+00        1.5680E+03        3.5680E+01
        1.5314E-07        0.0000E+00        1.5719E+03        3.8320E+01
        1.5665E-07        0.0000E+00        1.5784E+03        3.8320E+01
        1.6029E-07        0.0000E+00        1.5878E+03        3.5970E+01
        1.6406E-07        0.0000E+00        1.6001E+03        3.4790E+01
        1.6796E-07        0.0000E+00        1.6156E+03        3.4090E+01
        1.7201E-07        0.0000E+00        1.6347E+03        4.3780E+01
        1.7620E-07        0.0000E+00        1.6578E+03        4.4070E+01
        1.8055E-07        0.0000E+00        1.6851E+03        4.7530E+01
        1.8506E-07        0.0000E+00        1.7173E+03        4.8560E+01
        1.8974E-07        0.0000E+00        1.7549E+03        4.9380E+01
        1.9460E-07        0.0000E+00        1.7985E+03        5.0180E+01
        1.9965E-07        0.0000E+00        1.8491E+03        5.1560E+01
        2.0490E-07        0.0000E+00        1.9075E+03        4.3030E+01
        2.1036E-07        0.0000E+00        1.9752E+03        4.7620E+01
        2.1604E-07        0.0000E+00        2.0536E+03        5.3580E+01
        2.2195E-07        0.0000E+00        2.1447E+03        6.0590E+01
        2.2811E-07        0.0000E+00        2.2509E+03        6.3860E+01
        2.3453E-07        0.0000E+00        2.3755E+03        7.8810E+01
        2.4122E-07        0.0000E+00        2.5228E+03        8.6130E+01
        2.4821E-07        0.0000E+00        2.6988E+03        1.1110E+02
        2.5550E-07        0.0000E+00        2.9117E+03        1.2850E+02
        2.6154E-07        0.0000E+00        3.1151E+03        1.2460E+02
        2.6545E-07        0.0000E+00        3.2617E+03        1.8080E+02
        2.6944E-07        0.0000E+00        3.4258E+03        1.7510E+02
        2.7352E-07        0.0000E+00        3.6111E+03        1.9750E+02
        2.7769E-07        0.0000E+00        3.8210E+03        2.0970E+02
        2.8196E-07        0.0000E+00        4.0609E+03        2.1440E+02
        2.8633E-07        0.0000E+00        4.3372E+03        2.3150E+02
        2.9081E-07        0.0000E+00        4.6590E+03        2.5400E+02
        2.9539E-07        0.0000E+00        5.0382E+03        1.9600E+02
        3.0007E-07        0.0000E+00        5.5134E+03        2.1430E+02
        3.0487E-07        0.0000E+00        5.9191E+03        2.1400E+02
        3.0979E-07        0.0000E+00        6.3028E+03        2.0920E+02
        3.1482E-07        0.0000E+00        6.6618E+03        2.2650E+02
        3.1998E-07        0.0000E+00        6.9631E+03        2.3200E+02
        3.2527E-07        0.0000E+00        7.1749E+03        2.2510E+02
        3.3069E-07        0.0000E+00        7.2792E+03        2.2990E+02
        3.3625E-07        0.0000E+00        7.2827E+03        2.2810E+02
        3.4194E-07        0.0000E+00        7.2184E+03        2.0760E+02
        3.4779E-07        0.0000E+00        7.1355E+03        1.9940E+02
        3.5378E-07        0.0000E+00        7.0869E+03        1.8260E+02
        3.5993E-07        0.0000E+00        7.1181E+03        2.1330E+02
        3.6624E-07        0.0000E+00        7.2633E+03        2.1760E+02
        3.7272E-07        0.0000E+00        7.5484E+03        2.2670E+02
        3.7938E-07        0.0000E+00        7.9967E+03        2.4510E+02
        3.8621E-07        0.0000E+00        8.6341E+03        2.6670E+02
        3.9323E-07        0.0000E+00        9.4916E+03        3.1520E+02
        4.0044E-07        0.0000E+00        1.0608E+04        3.5860E+02
        4.0785E-07        0.0000E+00        1.2030E+04        4.1910E+02
        4.1548E-07        0.0000E+00        1.3798E+04        5.1500E+02
        4.2331E-07        0.0000E+00        1.5927E+04        6.4700E+02
        4.3137E-07        0.0000E+00        1.8355E+04        8.2620E+02
        4.3966E-07        0.0000E+00        2.0851E+04        1.0670E+03
        4.4820E-07        0.0000E+00        2.2943E+04        1.2890E+03
        4.5698E-07        0.0000E+00        2.3967E+04        1.4300E+03
        4.6603E-07        0.0000E+00        2.3400E+04        1.3310E+03
        4.7535E-07        0.0000E+00        2.1272E+04        1.0750E+03
        4.8494E-07        0.0000E+00        1.8199E+04        8.0160E+02
        4.9484E-07        0.0000E+00        1.4937E+04        5.8650E+02
        5.0504E-07        0.0000E+00        1.1981E+04        4.1940E+02
        5.1555E-07        0.0000E+00        9.5268E+03        3.2140E+02
        5.2640E-07        0.0000E+00        7.5787E+03        2.4310E+02
        5.3760E-07        0.0000E+00        6.0613E+03        1.9470E+02
        5.4915E-07        0.0000E+00        4.8863E+03        1.5400E+02
        5.6109E-07        0.0000E+00        3.9749E+03        1.1460E+02
        5.7341E-07        0.0000E+00        3.2635E+03        9.3460E+01
        5.8615E-07        0.0000E+00        2.7039E+03        7.7020E+01
        5.9932E-07        0.0000E+00        2.2773E+03        6.0160E+01
        6.1293E-07        0.0000E+00        1.9049E+03        5.0840E+01
        6.2701E-07        0.0000E+00        1.6135E+03        3.8490E+01
        6.4159E-07        0.0000E+00        1.3807E+03        3.2710E+01
        6.5668E-07        0.0000E+00        1.1956E+03        3.1340E+01
        6.7231E-07        0.0000E+00        1.0454E+03        2.4460E+01
        6.8850E-07        0.0000E+00        9.2136E+02        2.1940E+01
        7.0528E-07        0.0000E+00        8.1821E+02        2.3300E+01
        7.2269E-07        0.0000E+00        7.3195E+02        2.1550E+01
        7.4075E-07        0.0000E+00        6.5985E+02        2.0710E+01
        7.5949E-07        0.0000E+00        6.0011E+02        1.9910E+01
        7.7895E-07        0.0000E+00        5.5154E+02        1.8600E+01
        7.9917E-07        0.0000E+00        5.1381E+02        1.8190E+01
        8.2019E-07        0.0000E+00        4.8732E+02        1.7310E+01
        8.4205E-07        0.0000E+00        4.7362E+02        1.5160E+01
        8.6480E-07        0.0000E+00        4.7612E+02        1.4660E+01
        8.8848E-07        0.0000E+00        5.0141E+02        1.7960E+01
        9.1315E-07        0.0000E+00        5.6251E+02        2.0080E+01
        9.3885E-07        0.0000E+00        6.8615E+02        3.1300E+01
        9.6004E-07        0.0000E+00        8.6544E+02        4.0710E+01
        9.7376E-07        0.0000E+00        1.0411E+03        4.3730E+01
        9.8777E-07        0.0000E+00        1.2910E+03        5.1960E+01
        1.0021E-06        0.0000E+00        1.6435E+03        6.3200E+01
        1.0167E-06        0.0000E+00        2.1184E+03        7.7220E+01
        1.0317E-06        0.0000E+00        2.6742E+03        7.3660E+01
        1.0470E-06        0.0000E+00        3.1185E+03        9.8200E+01
        1.0626E-06        0.0000E+00        3.1568E+03        9.9860E+01
        1.0786E-06        0.0000E+00        2.7380E+03        1.2440E+02
        1.0949E-06        0.0000E+00        2.1376E+03        9.6070E+01
        1.1116E-06        0.0000E+00        1.5993E+03        7.2000E+01
        1.1287E-06        0.0000E+00        1.1925E+03        4.8020E+01
        1.1462E-06        0.0000E+00        9.0194E+02        3.6480E+01
        1.1641E-06        0.0000E+00        6.9531E+02        2.0900E+01
        1.1825E-06        0.0000E+00        5.3440E+02        1.6750E+01
        1.2012E-06        0.0000E+00        4.3422E+02        1.4160E+01
        1.2205E-06        0.0000E+00        3.5885E+02        1.2720E+01
        1.2401E-06        0.0000E+00        3.1364E+02        1.5740E+01
        1.2603E-06        0.0000E+00        2.7270E+02        1.3160E+01
        1.2810E-06        0.0000E+00        2.3971E+02        1.3040E+01
        1.3022E-06        0.0000E+00        2.1279E+02        1.2860E+01
        1.3239E-06        0.0000E+00        1.9059E+02        1.1650E+01
        1.3461E-06        0.0000E+00        1.7219E+02        8.5630E+00
        1.3689E-06        0.0000E+00        1.5690E+02        7.8420E+00
        1.3923E-06        0.0000E+00        1.4425E+02        7.4000E+00
        1.4163E-06        0.0000E+00        1.3393E+02        6.1460E+00
        1.4410E-06        0.0000E+00        1.2572E+02        6.2760E+00
        1.4663E-06        0.0000E+00        1.1955E+02        5.7290E+00
        1.4922E-06        0.0000E+00        1.1539E+02        5.8190E+00
        1.5189E-06        0.0000E+00        1.1349E+02        5.8340E+00
        1.5462E-06        0.0000E+00        1.1408E+02        5.5000E+00
        1.5743E-06        0.0000E+00        1.1782E+02        8.8670E+00
