# entry-subent-pointer  : D4163-008-0 
# EXFOR reaction        : ['74-W-0', ['P,X'], '73-TA-183,CUM,SIG'] 
# incident energy       : 6.8400e+00 MeV - 3.3410e+01 MeV 
# target                : W-0 
# product               : Ta-183 
# level energy          : - 
# MF-MT number          : 3 - 10 
# first author          : F.Tarkanyi 
# institute             : (3HUNDEB): Institute for Nuclear Research (ATOMKI), Debrecen 
# reference             : (J,NIM/B,252,160,2006) 
# year                  : 2006 
# facility              : (CYCLO): Cyclotron 
# git                   : https://github.com/IAEA-NDS/exfor_master/blob/main/exforall/D41/D4163.x4 
# nds                   : https://nds.iaea.org/EXFOR/D4163
#
#       E_in(MeV)       dE_in(MeV)            XS(B)           dXS(B)
      6.84000E+00      1.38000E+00      1.00000E-05      2.00000E-05
      7.89000E+00      1.28000E+00      1.60000E-04      6.00000E-05
      8.85000E+00      1.18000E+00      4.50000E-04      3.50000E-04
      9.74000E+00      1.09000E+00      8.40000E-04      1.90000E-04
      1.05700E+01      1.01000E+00      1.79000E-03      3.30000E-04
      1.15700E+01      9.10000E-01      1.93000E-03      5.20000E-04
      1.25100E+01      8.20000E-01      2.39000E-03      4.90000E-04
      1.34000E+01      7.30000E-01      2.32000E-03      4.70000E-04
      1.42500E+01      6.50000E-01      6.29000E-03      1.11000E-03
      1.50600E+01      5.70000E-01      7.05000E-03      1.28000E-03
      1.60000E+01      4.70000E-01      9.81000E-03      1.70000E-03
      1.69000E+01      3.90000E-01      1.34900E-02      2.32000E-03
      1.77600E+01      3.00000E-01      1.71400E-02      3.05000E-03
      2.00400E+01      1.48000E+00      1.59300E-02      5.64000E-03
      2.11800E+01      1.38000E+00      2.17100E-02      1.02200E-02
      2.22800E+01      1.28000E+00      1.23100E-02      4.07000E-03
      2.33400E+01      1.19000E+00      1.74200E-02      5.25000E-03
      2.43700E+01      1.10000E+00      1.39800E-02      4.09000E-03
      2.53600E+01      1.01000E+00      8.18000E-03      4.62000E-03
      2.63300E+01      9.20000E-01      1.82700E-02      7.36000E-03
      2.72800E+01      8.40000E-01      9.59000E-03      3.21000E-03
      2.83100E+01      7.50000E-01      3.19800E-02      1.47300E-02
      2.92000E+01      6.70000E-01      1.36900E-02      3.53000E-03
      3.00800E+01      5.90000E-01      1.44400E-02      4.64000E-03
      3.09300E+01      5.20000E-01      1.65000E-02      4.66000E-03
      3.17700E+01      4.40000E-01      2.77600E-02      6.93000E-03
      3.26000E+01      3.70000E-01      3.12900E-02      7.75000E-03
      3.34100E+01      3.00000E-01      2.70300E-02      6.21000E-03
