# entry-subent-pointer  : O1099-058-0 
# EXFOR reaction        : ['74-W-0', ['P,X'], '75-RE-183,,SIG'] 
# incident energy       : 6.8600e+01 MeV - 2.5900e+03 MeV 
# target                : W-0 
# product               : Re-183 
# level energy          : - 
# MF-MT number          : 3 - 10 
# first author          : R.Michel 
# institute             : (2GERUH): University Hannover (previously Tech.University Hannover) 
# reference             : (J,NSTS,2,242,2002) 
# year                  : 2002 
# facility              : (SYNCH): Synchrotron 
# git                   : https://github.com/IAEA-NDS/exfor_master/blob/main/exforall/O10/O1099.x4 
# nds                   : https://nds.iaea.org/EXFOR/O1099
#
#       E_in(MeV)       dE_in(MeV)            XS(B)           dXS(B)
      6.86000E+01      1.92400E+00      3.96200E-02      4.25400E-03
      8.01000E+01      1.30000E+00      3.59700E-02      4.05200E-03
      8.42000E+01      1.83000E+00      2.66600E-02      3.42600E-03
      9.17000E+01      1.20000E+00      2.92600E-02      3.04600E-03
      9.55000E+01      1.76000E+00      2.35000E-02      3.09700E-03
      9.92000E+01      1.74100E+00      2.41700E-02      2.64900E-03
      9.96000E+01      1.12000E+00      2.69900E-02      2.80100E-03
      1.07000E+02      1.68000E+00      2.29100E-02      2.96200E-03
      1.09000E+02      1.01000E+00      2.35300E-02      2.48100E-03
      1.16000E+02      1.62900E+00      2.12400E-02      2.27000E-03
      1.17000E+02      9.25000E-01      2.03200E-02      2.10700E-03
      1.26000E+02      7.85000E-01      1.92800E-02      2.01500E-03
      1.32000E+02      6.57000E-01      1.80100E-02      1.95600E-03
      1.36000E+02      1.47000E+00      1.56000E-02      2.01400E-03
      1.39000E+02      1.45100E+00      1.80200E-02      2.18600E-03
      1.47000E+02      1.38000E+00      1.29900E-02      2.02900E-03
      1.54000E+02      1.29000E+00      1.61500E-02      1.77100E-03
      1.59000E+02      1.25000E+00      1.48400E-02      1.67000E-03
      1.63000E+02      1.20000E+00      1.33300E-02      2.50600E-03
      1.70000E+02      1.11000E+00      1.34400E-02      1.45800E-03
      1.72000E+02      1.08900E+00      1.26000E-02      1.37000E-03
      2.35000E+02      1.29900E+00      8.29100E-03      1.06200E-03
      2.54000E+02      1.72000E+00      8.35700E-03      9.30900E-04
      2.60000E+02      1.08000E+00      8.27300E-03      8.54500E-04
      3.34000E+02      1.68000E+00      5.91600E-03      6.82100E-04
      5.59000E+02      1.48000E+00      4.27500E-03      5.20800E-04
      7.64000E+02      1.45000E+00      4.15200E-03      4.28200E-04
      9.88000E+02      1.01000E+00      3.64000E-03      4.71000E-04
      1.16000E+03      1.36600E+00      3.26200E-03      5.16900E-04
      1.38000E+03      1.01600E+00      3.08600E-03      5.10900E-04
      1.57000E+03      1.29000E+00      3.24100E-03      4.91600E-04
      2.58000E+03      1.00200E+00      4.78500E-03      9.30000E-04
      2.59000E+03      1.01000E+00      3.33100E-03      4.82200E-04
