# entry-subent-pointer  : O1099-056-0 
# EXFOR reaction        : (74-W-0(P,X)75-RE-181,,SIG) 
# incident energy       : 6.8600e+01 MeV - 2.5900e+03 MeV 
# target                : W-0 
# product               : Re-181 
# level energy          : - 
# MF-MT number          : 3 - 10 
# first author          : Michel 
# institute             : (2GERUH): University Hannover (previously Tech.University Hannover) 
# reference             : (J,NSTS,2,242,2002) 
# year                  : 2002 
# facility              : (SYNCH): Synchrotron 
# git                   : https://github.com/IAEA-NDS/exfor_master/blob/main/exforall/O10/O1099.x4 
# nds                   : https://nds.iaea.org/EXFOR/O1099
#
#       E_in(MeV)         dE_in(MeV)        XS(B)             dXS(B)
        6.8600E+01        1.9240E+00        1.1490E-01        1.4300E-02
        8.0100E+01        1.3000E+00        9.4400E-02        1.1460E-02
        8.4200E+01        1.8300E+00        7.6500E-02        8.1480E-03
        9.1700E+01        1.2000E+00        7.4780E-02        9.0530E-03
        9.5500E+01        1.7600E+00        5.8920E-02        8.4340E-03
        9.9200E+01        1.7410E+00        5.6350E-02        9.2390E-03
        9.9600E+01        1.1200E+00        6.1020E-02        7.5110E-03
        1.0700E+02        1.6800E+00        5.3350E-02        5.8260E-03
        1.0900E+02        1.0100E+00        5.4840E-02        7.9370E-03
        1.1600E+02        1.6290E+00        4.9820E-02        6.8750E-03
        1.1700E+02        9.2500E-01        4.8850E-02        6.4060E-03
        1.2600E+02        7.8500E-01        4.5600E-02        6.0840E-03
        1.3200E+02        6.5700E-01        3.8880E-02        4.9380E-03
        1.3600E+02        1.4700E+00        3.5090E-02        4.8060E-03
        1.3900E+02        1.4510E+00        3.3040E-02        6.0910E-03
        1.4700E+02        1.3800E+00        3.5330E-02        3.9430E-03
        1.5400E+02        1.2900E+00        2.7170E-02        4.1540E-03
        1.5900E+02        1.2500E+00        2.9400E-02        7.5810E-03
        1.6300E+02        1.2000E+00        2.6020E-02        3.6670E-03
        1.7000E+02        1.1100E+00        2.6080E-02        3.3170E-03
        1.7200E+02        1.0890E+00        2.5770E-02        6.7230E-03
        2.3500E+02        1.2990E+00        1.9890E-02        3.8850E-03
        2.5400E+02        1.7200E+00        1.6230E-02        1.8310E-03
        2.6000E+02        1.0800E+00        1.6200E-02        1.7040E-03
        3.3400E+02        1.6800E+00        1.1670E-02        1.4810E-03
        5.5900E+02        1.4800E+00        9.0630E-03        1.0080E-03
        7.6400E+02        1.4500E+00        8.2080E-03        9.2190E-04
        9.8800E+02        1.0100E+00        7.3690E-03        9.5670E-04
        1.3800E+03        1.0160E+00        7.8420E-03        9.8450E-04
        1.5700E+03        1.2900E+00        5.8310E-03        1.1780E-03
        2.5800E+03        1.0020E+00        8.6270E-03        1.6930E-03
        2.5900E+03        1.0100E+00        5.5150E-03        6.0540E-04
