# entry-subent-pointer  : 10817-005-0 
# EXFOR reaction        : (50-SN-124(N,TOT),,SIG) 
# incident energy       : 5.0490e+00 MeV - 2.6000e+01 MeV 
# target                : Sn-124 
# product               : - 
# level energy          : - 
# MF-MT number          : 3 - 1 
# first author          : Rapaport 
# institute             : (1USAOHO): Ohio University, Athens, OH 
# reference             : (J,NP/A,341,56,198005) 
# year                  : 1980 
# facility              : (VDGT): Tandem van de Graaff 
# git                   : https://github.com/IAEA-NDS/exfor_master/blob/main/exforall/108/10817.x4 
# nds                   : https://nds.iaea.org/EXFOR/10817
#
#       E_in(MeV)         dE_in(MeV)        XS(B)             dXS(B)
        5.0490E+00        0.0000E+00        4.2900E+00        4.2900E-02
        5.2520E+00        0.0000E+00        4.0600E+00        4.0600E-02
        5.4570E+00        0.0000E+00        3.9700E+00        3.9700E-02
        5.8640E+00        0.0000E+00        4.2900E+00        4.2900E-02
        6.0680E+00        0.0000E+00        4.1800E+00        4.1800E-02
        6.1700E+00        0.0000E+00        4.2100E+00        4.2100E-02
        6.4740E+00        0.0000E+00        4.2100E+00        4.2100E-02
        6.7750E+00        0.0000E+00        4.0600E+00        4.8720E-02
        6.8780E+00        0.0000E+00        4.1900E+00        4.6090E-02
        7.0800E+00        0.0000E+00        4.1400E+00        4.5540E-02
        7.2850E+00        0.0000E+00        4.3100E+00        5.1720E-02
        7.4880E+00        0.0000E+00        4.1000E+00        4.9200E-02
        7.6800E+00        0.0000E+00        4.5100E+00        5.4120E-02
        7.9170E+00        0.0000E+00        4.6000E+00        5.5200E-02
        8.1300E+00        0.0000E+00        4.3600E+00        5.2320E-02
        9.4900E+00        0.0000E+00        4.5900E+00        4.5900E-02
        9.5900E+00        0.0000E+00        4.5100E+00        4.5100E-02
        9.6900E+00        0.0000E+00        4.5100E+00        4.5100E-02
        9.7400E+00        0.0000E+00        4.4400E+00        4.4400E-02
        9.7600E+00        0.0000E+00        4.5900E+00        4.5900E-02
        9.7800E+00        0.0000E+00        4.4100E+00        4.4100E-02
        9.8000E+00        0.0000E+00        4.7600E+00        4.7600E-02
        9.8200E+00        0.0000E+00        4.5700E+00        4.5700E-02
        9.8400E+00        0.0000E+00        4.5600E+00        4.5600E-02
        9.8600E+00        0.0000E+00        4.5300E+00        4.5300E-02
        9.8800E+00        0.0000E+00        4.7200E+00        4.7200E-02
        9.9000E+00        0.0000E+00        4.5300E+00        4.5300E-02
        9.9200E+00        0.0000E+00        4.5600E+00        4.5600E-02
        9.9400E+00        0.0000E+00        4.6500E+00        4.6500E-02
        9.9900E+00        0.0000E+00        4.5700E+00        4.5700E-02
        1.0040E+01        0.0000E+00        4.5100E+00        4.5100E-02
        1.0090E+01        0.0000E+00        4.4600E+00        4.4600E-02
        1.0110E+01        0.0000E+00        4.6400E+00        4.6400E-02
        1.0130E+01        0.0000E+00        4.4900E+00        4.4900E-02
        1.0150E+01        0.0000E+00        4.5400E+00        4.5400E-02
        1.0170E+01        0.0000E+00        4.6600E+00        4.6600E-02
        1.0190E+01        0.0000E+00        4.6300E+00        4.6300E-02
        1.0210E+01        0.0000E+00        4.5300E+00        4.5300E-02
        1.0230E+01        0.0000E+00        4.5200E+00        4.5200E-02
        1.0250E+01        0.0000E+00        4.5900E+00        4.5900E-02
        1.0290E+01        0.0000E+00        4.4300E+00        4.4300E-02
        1.0340E+01        0.0000E+00        4.5300E+00        4.5300E-02
        1.0360E+01        0.0000E+00        4.6200E+00        4.6200E-02
        1.0380E+01        0.0000E+00        4.5100E+00        4.5100E-02
        1.0410E+01        0.0000E+00        4.6200E+00        4.6200E-02
        1.0420E+01        0.0000E+00        4.7800E+00        4.7800E-02
        1.0440E+01        0.0000E+00        4.5700E+00        4.5700E-02
        1.0460E+01        0.0000E+00        4.6000E+00        4.6000E-02
        1.0480E+01        0.0000E+00        4.4800E+00        4.4800E-02
        1.0500E+01        0.0000E+00        4.4100E+00        4.4100E-02
        1.0520E+01        0.0000E+00        4.4800E+00        4.4800E-02
        1.0540E+01        0.0000E+00        4.4600E+00        4.4600E-02
        1.0590E+01        0.0000E+00        4.6100E+00        4.6100E-02
        2.0000E+01        0.0000E+00        4.1300E+00        8.2600E-02
        2.1000E+01        0.0000E+00        4.1800E+00        8.3600E-02
        2.2000E+01        0.0000E+00        3.9500E+00        7.9000E-02
        2.3000E+01        0.0000E+00        3.8600E+00        7.7200E-02
        2.4000E+01        0.0000E+00        3.4800E+00        6.9600E-02
        2.6000E+01        0.0000E+00        3.6600E+00        7.3200E-02
