# entry-subent-pointer  : 14715-007-0 
# EXFOR reaction        : ['94-PU-239', ['N,F'], 'MASS,SEC,FY'] 
# incident energy       : 9.0700e+00 MeV 
# target                : Pu-239 
# product               : 78.0 <= A <= 162.0 
# level energy          : - 
# MF-MT number          : 8 - 454 
# first author          : A.Chemey 
# institute             : (1USAOSU): Ohio State University, Columbus, OH 
# reference             : (J,EPJ/A,56,297,2020) 
# year                  : 2020 
# facility              : (LINAC): Linear accelerator 
# git                   : https://github.com/IAEA-NDS/exfor_master/blob/main/exforall/147/14715.x4 
# nds                   : https://nds.iaea.org/EXFOR/14715
#
# Charge(No Dim.)    Mass(No Dim.)  Isomer(No Dim.)    Yield(%/fiss)   dYield(%/fiss)
                              78.0                       3.02663E-04      0.00000E+00
                              79.0                       1.21065E-03      0.00000E+00
                              80.0                       1.21065E-03      0.00000E+00
                              81.0                       9.07990E-04      0.00000E+00
                              82.0                       9.07990E-04      0.00000E+00
                              83.0                       2.42131E-03      0.00000E+00
                              84.0                       4.84262E-03      0.00000E+00
                              85.0                       3.93462E-03      0.00000E+00
                              86.0                       3.63196E-03      0.00000E+00
                              87.0                       6.96126E-03      0.00000E+00
                              88.0                       7.86925E-03      0.00000E+00
                              89.0                       1.02906E-02      0.00000E+00
                              90.0                       1.54358E-02      0.00000E+00
                              91.0                       1.78571E-02      0.00000E+00
                              92.0                       2.02784E-02      0.00000E+00
                              93.0                       2.63317E-02      0.00000E+00
                              94.0                       2.63317E-02      0.00000E+00
                              95.0                       2.60291E-02      0.00000E+00
                              96.0                       3.66223E-02      0.00000E+00
                              97.0                       4.23729E-02      0.00000E+00
                              98.0                       4.50969E-02      0.00000E+00
                              99.0                       4.81235E-02      0.00000E+00
                             100.0                       5.05448E-02      0.00000E+00
                             101.0                       5.56901E-02      0.00000E+00
                             102.0                       5.93220E-02      0.00000E+00
                             103.0                       5.78087E-02      0.00000E+00
                             104.0                       5.41768E-02      0.00000E+00
                             105.0                       5.02421E-02      0.00000E+00
                             106.0                       4.78208E-02      0.00000E+00
                             107.0                       4.96368E-02      0.00000E+00
                             108.0                       4.50969E-02      0.00000E+00
                             109.0                       3.35956E-02      0.00000E+00
                             110.0                       2.78450E-02      0.00000E+00
                             111.0                       2.36078E-02      0.00000E+00
                             112.0                       1.99758E-02      0.00000E+00
                             113.0                       1.69491E-02      0.00000E+00
                             114.0                       1.18039E-02      0.00000E+00
                             115.0                       1.18039E-02      0.00000E+00
                             116.0                       1.11985E-02      0.00000E+00
                             117.0                       7.86925E-03      0.00000E+00
                             118.0                       6.65860E-03      0.00000E+00
                             119.0                       6.35593E-03      0.00000E+00
                             120.0                       6.05327E-03      0.00000E+00
                             121.0                       6.35593E-03      0.00000E+00
                             122.0                       6.65860E-03      0.00000E+00
                             123.0                       7.86925E-03      0.00000E+00
                             124.0                       1.11985E-02      0.00000E+00
                             125.0                       1.18039E-02      0.00000E+00
                             126.0                       1.18039E-02      0.00000E+00
                             127.0                       1.69491E-02      0.00000E+00
                             128.0                       1.99758E-02      0.00000E+00
                             129.0                       2.36078E-02      0.00000E+00
                             130.0                       2.78450E-02      0.00000E+00
                             131.0                       3.35956E-02      0.00000E+00
                             132.0                       4.50969E-02      0.00000E+00
                             133.0                       4.96368E-02      0.00000E+00
                             134.0                       4.78208E-02      0.00000E+00
                             135.0                       5.02421E-02      0.00000E+00
                             136.0                       5.41768E-02      0.00000E+00
                             137.0                       5.78087E-02      0.00000E+00
                             138.0                       5.93220E-02      0.00000E+00
                             139.0                       5.56901E-02      0.00000E+00
                             140.0                       5.05448E-02      0.00000E+00
                             141.0                       4.81235E-02      0.00000E+00
                             142.0                       4.50969E-02      0.00000E+00
                             143.0                       4.23729E-02      0.00000E+00
                             144.0                       3.66223E-02      0.00000E+00
                             145.0                       2.60291E-02      0.00000E+00
                             146.0                       2.63317E-02      0.00000E+00
                             147.0                       2.63317E-02      0.00000E+00
                             148.0                       2.02784E-02      0.00000E+00
                             149.0                       1.78571E-02      0.00000E+00
                             150.0                       1.54358E-02      0.00000E+00
                             151.0                       1.02906E-02      0.00000E+00
                             152.0                       7.86925E-03      0.00000E+00
                             153.0                       6.96126E-03      0.00000E+00
                             154.0                       3.63196E-03      0.00000E+00
                             155.0                       3.93462E-03      0.00000E+00
                             156.0                       4.84262E-03      0.00000E+00
                             157.0                       2.42131E-03      0.00000E+00
                             158.0                       9.07990E-04      0.00000E+00
                             159.0                       9.07990E-04      0.00000E+00
                             160.0                       1.21065E-03      0.00000E+00
                             161.0                       1.21065E-03      0.00000E+00
                             162.0                       3.02663E-04      0.00000E+00
