# entry-subent-pointer  : 14715-003-0 
# EXFOR reaction        : ['94-PU-239', ['N,F'], 'MASS,SEC,FY'] 
# incident energy       : 2.9400e+00 MeV 
# target                : Pu-239 
# product               : 73.0 <= A <= 167.0 
# level energy          : - 
# MF-MT number          : 8 - 454 
# first author          : A.Chemey 
# institute             : (1USAOSU): Ohio State University, Columbus, OH 
# reference             : (J,EPJ/A,56,297,2020) 
# year                  : 2020 
# facility              : (LINAC): Linear accelerator 
# git                   : https://github.com/IAEA-NDS/exfor_master/blob/main/exforall/147/14715.x4 
# nds                   : https://nds.iaea.org/EXFOR/14715
#
# Charge(No Dim.)    Mass(No Dim.)  Isomer(No Dim.)    Yield(%/fiss)   dYield(%/fiss)
                              73.0                       2.94638E-04      0.00000E+00
                              74.0                       2.94638E-04      0.00000E+00
                              76.0                       2.94638E-04      0.00000E+00
                              77.0                       2.94638E-04      0.00000E+00
                              79.0                       5.89275E-04      0.00000E+00
                              80.0                       5.89275E-04      0.00000E+00
                              81.0                       5.89275E-04      0.00000E+00
                              82.0                       8.83913E-04      0.00000E+00
                              83.0                       8.83913E-04      0.00000E+00
                              84.0                       2.35710E-03      0.00000E+00
                              85.0                       3.24101E-03      0.00000E+00
                              86.0                       4.71420E-03      0.00000E+00
                              87.0                       7.66058E-03      0.00000E+00
                              88.0                       6.18739E-03      0.00000E+00
                              89.0                       7.36594E-03      0.00000E+00
                              90.0                       1.38480E-02      0.00000E+00
                              91.0                       1.38480E-02      0.00000E+00
                              92.0                       1.41426E-02      0.00000E+00
                              93.0                       2.00354E-02      0.00000E+00
                              94.0                       2.79906E-02      0.00000E+00
                              95.0                       3.53565E-02      0.00000E+00
                              96.0                       3.83029E-02      0.00000E+00
                              97.0                       4.68474E-02      0.00000E+00
                              98.0                       5.71597E-02      0.00000E+00
                              99.0                       5.68651E-02      0.00000E+00
                             100.0                       5.92222E-02      0.00000E+00
                             101.0                       6.06953E-02      0.00000E+00
                             102.0                       5.80436E-02      0.00000E+00
                             103.0                       6.48203E-02      0.00000E+00
                             104.0                       6.54095E-02      0.00000E+00
                             105.0                       6.21685E-02      0.00000E+00
                             106.0                       5.77490E-02      0.00000E+00
                             107.0                       4.74367E-02      0.00000E+00
                             108.0                       4.21332E-02      0.00000E+00
                             109.0                       3.27048E-02      0.00000E+00
                             110.0                       2.35710E-02      0.00000E+00
                             111.0                       1.67943E-02      0.00000E+00
                             112.0                       1.06070E-02      0.00000E+00
                             113.0                       9.72304E-03      0.00000E+00
                             114.0                       6.77666E-03      0.00000E+00
                             115.0                       4.71420E-03      0.00000E+00
                             116.0                       4.12493E-03      0.00000E+00
                             117.0                       4.12493E-03      0.00000E+00
                             118.0                       5.30348E-03      0.00000E+00
                             119.0                       2.94638E-03      0.00000E+00
                             120.0                       5.89275E-04      0.00000E+00
                             121.0                       2.94638E-03      0.00000E+00
                             122.0                       5.30348E-03      0.00000E+00
                             123.0                       4.12493E-03      0.00000E+00
                             124.0                       4.12493E-03      0.00000E+00
                             125.0                       4.71420E-03      0.00000E+00
                             126.0                       6.77666E-03      0.00000E+00
                             127.0                       9.72304E-03      0.00000E+00
                             128.0                       1.06070E-02      0.00000E+00
                             129.0                       1.67943E-02      0.00000E+00
                             130.0                       2.35710E-02      0.00000E+00
                             131.0                       3.27048E-02      0.00000E+00
                             132.0                       4.21332E-02      0.00000E+00
                             133.0                       4.74367E-02      0.00000E+00
                             134.0                       5.77490E-02      0.00000E+00
                             135.0                       6.21685E-02      0.00000E+00
                             136.0                       6.54095E-02      0.00000E+00
                             137.0                       6.48203E-02      0.00000E+00
                             138.0                       5.80436E-02      0.00000E+00
                             139.0                       6.06953E-02      0.00000E+00
                             140.0                       5.92222E-02      0.00000E+00
                             141.0                       5.68651E-02      0.00000E+00
                             142.0                       5.71597E-02      0.00000E+00
                             143.0                       4.68474E-02      0.00000E+00
                             144.0                       3.83029E-02      0.00000E+00
                             145.0                       3.53565E-02      0.00000E+00
                             146.0                       2.79906E-02      0.00000E+00
                             147.0                       2.00354E-02      0.00000E+00
                             148.0                       1.41426E-02      0.00000E+00
                             149.0                       1.38480E-02      0.00000E+00
                             150.0                       1.38480E-02      0.00000E+00
                             151.0                       7.36594E-03      0.00000E+00
                             152.0                       6.18739E-03      0.00000E+00
                             153.0                       7.66058E-03      0.00000E+00
                             154.0                       4.71420E-03      0.00000E+00
                             155.0                       3.24101E-03      0.00000E+00
                             156.0                       2.35710E-03      0.00000E+00
                             157.0                       8.83913E-04      0.00000E+00
                             158.0                       8.83913E-04      0.00000E+00
                             159.0                       5.89275E-04      0.00000E+00
                             160.0                       5.89275E-04      0.00000E+00
                             161.0                       5.89275E-04      0.00000E+00
                             163.0                       2.94638E-04      0.00000E+00
                             164.0                       2.94638E-04      0.00000E+00
                             166.0                       2.94638E-04      0.00000E+00
                             167.0                       2.94638E-04      0.00000E+00
