# entry-subent-pointer  : 22273-013-2 
# EXFOR reaction        : ['94-PU-239', ['N,F'], 'MASS,SEC,FY,,,DERIV'] 
# incident energy       : 2.5300e-08 MeV 
# target                : Pu-239 
# product               : 76.0 <= A <= 119.0 
# level energy          : - 
# MF-MT number          : 8 - 454 
# first author          : P.Schillebeeckx 
# institute             : (2BLGBLG): Belgium 
# reference             : (J,NP/A,545,623,1992) 
# year                  : 1992 
# facility              : (REAC): Reactor 
# git                   : https://github.com/IAEA-NDS/exfor_master/blob/main/exforall/222/22273.x4 
# nds                   : https://nds.iaea.org/EXFOR/22273
#
# Charge(No Dim.)    Mass(No Dim.)  Isomer(No Dim.)    Yield(%/fiss)   dYield(%/fiss)
                              76.0                       3.19000E-04      0.00000E+00
                              77.0                       3.98000E-04      0.00000E+00
                              78.0                       4.77000E-04      0.00000E+00
                              79.0                       7.66000E-04      0.00000E+00
                              80.0                       1.63300E-03      0.00000E+00
                              81.0                       3.05100E-03      0.00000E+00
                              82.0                       2.13300E-03      0.00000E+00
                              83.0                       4.75900E-03      0.00000E+00
                              84.0                       5.94000E-03      0.00000E+00
                              85.0                       7.33300E-03      0.00000E+00
                              86.0                       1.01420E-02      0.00000E+00
                              87.0                       1.16390E-02      0.00000E+00
                              88.0                       1.38710E-02      0.00000E+00
                              89.0                       2.02520E-02      0.00000E+00
                              90.0                       2.41380E-02      0.00000E+00
                              91.0                       2.66330E-02      0.00000E+00
                              92.0                       3.44310E-02      0.00000E+00
                              93.0                       4.30700E-02      0.00000E+00
                              94.0                       4.51180E-02      0.00000E+00
                              95.0                       4.74290E-02      0.00000E+00
                              96.0                       4.76650E-02      0.00000E+00
                              97.0                       4.92150E-02      0.00000E+00
                              98.0                       5.26810E-02      0.00000E+00
                              99.0                       5.89830E-02      0.00000E+00
                             100.0                       6.23700E-02      0.00000E+00
                             101.0                       6.52850E-02      0.00000E+00
                             102.0                       6.26070E-02      0.00000E+00
                             103.0                       5.96670E-02      0.00000E+00
                             104.0                       5.55450E-02      0.00000E+00
                             105.0                       4.93230E-02      0.00000E+00
                             106.0                       4.20500E-02      0.00000E+00
                             107.0                       3.26510E-02      0.00000E+00
                             108.0                       2.36190E-02      0.00000E+00
                             109.0                       1.54800E-02      0.00000E+00
                             110.0                       9.44200E-03      0.00000E+00
                             111.0                       5.58300E-03      0.00000E+00
                             112.0                       3.37800E-03      0.00000E+00
                             113.0                       2.45900E-03      0.00000E+00
                             114.0                       1.88200E-03      0.00000E+00
                             115.0                       1.43600E-03      0.00000E+00
                             116.0                       1.20000E-03      0.00000E+00
                             117.0                       9.90000E-04      0.00000E+00
                             118.0                       7.28000E-04      0.00000E+00
                             119.0                       8.33000E-04      0.00000E+00
