# entry-subent-pointer  : 22273-013-1 
# EXFOR reaction        : ['94-PU-239', ['N,F'], 'MASS,SEC,FY,,,DERIV'] 
# incident energy       : 2.5300e-08 MeV 
# target                : Pu-239 
# product               : 76.0 <= A <= 119.0 
# level energy          : - 
# MF-MT number          : 8 - 454 
# first author          : P.Schillebeeckx 
# institute             : (2BLGBLG): Belgium 
# reference             : (J,NP/A,545,623,1992) 
# year                  : 1992 
# facility              : (REAC): Reactor 
# git                   : https://github.com/IAEA-NDS/exfor_master/blob/main/exforall/222/22273.x4 
# nds                   : https://nds.iaea.org/EXFOR/22273
#
# Charge(No Dim.)    Mass(No Dim.)  Isomer(No Dim.)    Yield(%/fiss)   dYield(%/fiss)
                              76.0                       4.24000E-04      0.00000E+00
                              77.0                       5.56000E-04      0.00000E+00
                              78.0                       6.87000E-04      0.00000E+00
                              79.0                       8.71000E-04      0.00000E+00
                              80.0                       1.50200E-03      0.00000E+00
                              81.0                       1.79100E-03      0.00000E+00
                              82.0                       2.68400E-03      0.00000E+00
                              83.0                       3.68200E-03      0.00000E+00
                              84.0                       4.96900E-03      0.00000E+00
                              85.0                       6.33500E-03      0.00000E+00
                              86.0                       8.04200E-03      0.00000E+00
                              87.0                       1.05630E-02      0.00000E+00
                              88.0                       1.35560E-02      0.00000E+00
                              89.0                       1.71010E-02      0.00000E+00
                              90.0                       2.12500E-02      0.00000E+00
                              91.0                       2.64750E-02      0.00000E+00
                              92.0                       3.07290E-02      0.00000E+00
                              93.0                       3.70570E-02      0.00000E+00
                              94.0                       4.47500E-02      0.00000E+00
                              95.0                       5.00540E-02      0.00000E+00
                              96.0                       5.29690E-02      0.00000E+00
                              97.0                       5.47020E-02      0.00000E+00
                              98.0                       5.70400E-02      0.00000E+00
                              99.0                       5.89830E-02      0.00000E+00
                             100.0                       6.04530E-02      0.00000E+00
                             101.0                       6.20550E-02      0.00000E+00
                             102.0                       6.36310E-02      0.00000E+00
                             103.0                       6.35000E-02      0.00000E+00
                             104.0                       6.11900E-02      0.00000E+00
                             105.0                       5.47310E-02      0.00000E+00
                             106.0                       4.51750E-02      0.00000E+00
                             107.0                       3.26770E-02      0.00000E+00
                             108.0                       2.18340E-02      0.00000E+00
                             109.0                       1.36690E-02      0.00000E+00
                             110.0                       8.49700E-03      0.00000E+00
                             111.0                       4.82100E-03      0.00000E+00
                             112.0                       2.82600E-03      0.00000E+00
                             113.0                       1.88100E-03      0.00000E+00
                             114.0                       1.46200E-03      0.00000E+00
                             115.0                       1.17300E-03      0.00000E+00
                             116.0                       1.01600E-03      0.00000E+00
                             117.0                       9.11000E-04      0.00000E+00
                             118.0                       8.85000E-04      0.00000E+00
                             119.0                       9.12000E-04      0.00000E+00
