# entry-subent-pointer  : 11386-014-0 
# EXFOR reaction        : (11-NA-23(N,TOT),,SIG) 
# incident energy       : 1.4710e-03 MeV - 6.3340e-02 MeV 
# target                : Na-23 
# product               : - 
# level energy          : - 
# MF-MT number          : 3 - 1 
# first author          : Hibdon 
# institute             : (1USAANL): Argonne National Laboratory, Argonne, IL 
# reference             : (J,PR,85,595,1952) 
# year                  : 1952 
# facility              : (ACCEL): Accelerator 
# git                   : https://github.com/IAEA-NDS/exfor_master/blob/main/exforall/113/11386.x4 
# nds                   : https://nds.iaea.org/EXFOR/11386
#
#       E_in(MeV)         dE_in(MeV)        XS(B)             dXS(B)
        1.4710E-03        0.0000E+00        9.5670E+00        1.3520E+00
        1.7940E-03        0.0000E+00        1.7779E+01        1.5600E+00
        2.5660E-03        0.0000E+00        5.0941E+01        2.0790E+00
        3.1860E-03        0.0000E+00        4.6680E+01        1.7680E+00
        3.4810E-03        0.0000E+00        3.3375E+01        1.8720E+00
        4.4990E-03        0.0000E+00        1.5602E+01        1.7670E+00
        5.4320E-03        0.0000E+00        1.1654E+01        0.0000E+00
        6.2660E-03        0.0000E+00        1.2383E+01        0.0000E+00
        7.4090E-03        0.0000E+00        9.9950E+00        1.3510E+00
        8.3440E-03        0.0000E+00        8.3330E+00        1.2470E+00
        9.3830E-03        0.0000E+00        6.2570E+00        0.0000E+00
        1.2193E-02        0.0000E+00        4.3910E+00        0.0000E+00
        1.4590E-02        0.0000E+00        5.2280E+00        0.0000E+00
        1.6570E-02        0.0000E+00        5.7520E+00        1.4560E+00
        1.7607E-02        0.0000E+00        2.3240E+00        0.0000E+00
        1.9693E-02        0.0000E+00        4.7190E+00        0.0000E+00
        2.1466E-02        0.0000E+00        6.0740E+00        0.0000E+00
        2.3551E-02        0.0000E+00        7.0140E+00        0.0000E+00
        2.5531E-02        0.0000E+00        7.7450E+00        0.0000E+00
        2.7510E-02        0.0000E+00        7.8530E+00        1.3500E+00
        2.9487E-02        0.0000E+00        6.2980E+00        0.0000E+00
        3.1672E-02        0.0000E+00        4.4320E+00        1.0400E+00
        3.5528E-02        0.0000E+00        5.6870E+00        0.0000E+00
        3.9488E-02        0.0000E+00        6.9430E+00        1.1430E+00
        4.3239E-02        0.0000E+00        7.4700E+00        0.0000E+00
        4.7301E-02        0.0000E+00        7.4790E+00        0.0000E+00
        5.1365E-02        0.0000E+00        8.9420E+00        1.0390E+00
        5.5326E-02        0.0000E+00        1.0510E+01        0.0000E+00
        5.9386E-02        0.0000E+00        8.8550E+00        0.0000E+00
        6.3340E-02        0.0000E+00        5.2250E+00        0.0000E+00
