# entry-subent-pointer  : 10803-017-0 
# EXFOR reaction        : (74-W-182(N,TOT),,SIG) 
# incident energy       : 2.9700e-01 MeV - 5.4250e+00 MeV 
# target                : W-182 
# product               : - 
# level energy          : - 
# MF-MT number          : 3 - 1 
# first author          : Guenther 
# institute             : (1USAANL): Argonne National Laboratory, Argonne, IL 
# reference             : (J,PR/C,26,2433,198212) 
# year                  : 1982 
# facility              : (ACCEL): Accelerator 
# git                   : https://github.com/IAEA-NDS/exfor_master/blob/main/exforall/108/10803.x4 
# nds                   : https://nds.iaea.org/EXFOR/10803
#
#       E_in(MeV)         dE_in(MeV)        XS(B)             dXS(B)
        2.9700E-01        0.0000E+00        7.3820E+00        0.0000E+00
        3.2800E-01        0.0000E+00        6.9250E+00        0.0000E+00
        3.8300E-01        0.0000E+00        6.9750E+00        0.0000E+00
        4.3500E-01        0.0000E+00        6.8960E+00        0.0000E+00
        4.7000E-01        0.0000E+00        6.9020E+00        0.0000E+00
        5.3400E-01        0.0000E+00        6.8360E+00        0.0000E+00
        5.8300E-01        0.0000E+00        6.8090E+00        0.0000E+00
        6.2900E-01        0.0000E+00        6.9040E+00        0.0000E+00
        6.7890E-01        0.0000E+00        6.7520E+00        0.0000E+00
        7.3070E-01        0.0000E+00        6.7500E+00        0.0000E+00
        7.7560E-01        0.0000E+00        6.7370E+00        0.0000E+00
        8.2980E-01        0.0000E+00        6.7600E+00        0.0000E+00
        8.9120E-01        0.0000E+00        6.7090E+00        0.0000E+00
        9.3000E-01        0.0000E+00        6.7170E+00        0.0000E+00
        9.9060E-01        0.0000E+00        6.7290E+00        0.0000E+00
        1.0190E+00        0.0000E+00        6.5380E+00        0.0000E+00
        1.0700E+00        0.0000E+00        6.8680E+00        0.0000E+00
        1.1110E+00        0.0000E+00        6.7540E+00        0.0000E+00
        1.1670E+00        0.0000E+00        6.6590E+00        0.0000E+00
        1.2180E+00        0.0000E+00        6.7750E+00        0.0000E+00
        1.2710E+00        0.0000E+00        6.7990E+00        0.0000E+00
        1.3250E+00        0.0000E+00        6.6760E+00        0.0000E+00
        1.3760E+00        0.0000E+00        6.7420E+00        0.0000E+00
        1.4190E+00        0.0000E+00        6.8800E+00        0.0000E+00
        1.4750E+00        0.0000E+00        6.7600E+00        0.0000E+00
        1.5290E+00        0.0000E+00        6.7490E+00        0.0000E+00
        1.5850E+00        0.0000E+00        6.9230E+00        0.0000E+00
        1.6280E+00        0.0000E+00        6.9010E+00        0.0000E+00
        1.6800E+00        0.0000E+00        6.8510E+00        0.0000E+00
        1.7190E+00        0.0000E+00        6.8680E+00        0.0000E+00
        1.7780E+00        0.0000E+00        7.0080E+00        0.0000E+00
        1.8190E+00        0.0000E+00        6.9170E+00        0.0000E+00
        1.8670E+00        0.0000E+00        6.9260E+00        0.0000E+00
        1.9300E+00        0.0000E+00        7.0540E+00        0.0000E+00
        1.9800E+00        0.0000E+00        6.9680E+00        0.0000E+00
        2.0480E+00        0.0000E+00        6.9570E+00        0.0000E+00
        2.1280E+00        0.0000E+00        6.9840E+00        0.0000E+00
        2.2480E+00        0.0000E+00        7.0890E+00        0.0000E+00
        2.3480E+00        0.0000E+00        7.1660E+00        0.0000E+00
        2.4530E+00        0.0000E+00        6.9060E+00        0.0000E+00
        2.5350E+00        0.0000E+00        7.0290E+00        0.0000E+00
        2.6460E+00        0.0000E+00        6.9340E+00        0.0000E+00
        2.7400E+00        0.0000E+00        6.7920E+00        0.0000E+00
        2.8560E+00        0.0000E+00        6.8250E+00        0.0000E+00
        2.9570E+00        0.0000E+00        6.8790E+00        0.0000E+00
        3.0470E+00        0.0000E+00        6.7600E+00        0.0000E+00
        3.1340E+00        0.0000E+00        6.6470E+00        0.0000E+00
        3.2420E+00        0.0000E+00        6.5800E+00        0.0000E+00
        3.3650E+00        0.0000E+00        6.5430E+00        0.0000E+00
        3.4760E+00        0.0000E+00        6.6180E+00        0.0000E+00
        3.6650E+00        0.0000E+00        6.5420E+00        0.0000E+00
        3.7650E+00        0.0000E+00        6.3910E+00        0.0000E+00
        3.8650E+00        0.0000E+00        6.3020E+00        0.0000E+00
        3.9740E+00        0.0000E+00        6.2640E+00        0.0000E+00
        4.0570E+00        0.0000E+00        6.1370E+00        0.0000E+00
        4.1600E+00        0.0000E+00        6.0240E+00        0.0000E+00
        4.2600E+00        0.0000E+00        6.1060E+00        0.0000E+00
        4.3600E+00        0.0000E+00        6.0000E+00        0.0000E+00
        4.4550E+00        0.0000E+00        6.0330E+00        0.0000E+00
        4.5550E+00        0.0000E+00        6.1460E+00        0.0000E+00
        4.6560E+00        0.0000E+00        5.9890E+00        0.0000E+00
        4.7550E+00        0.0000E+00        5.9890E+00        0.0000E+00
        4.8640E+00        0.0000E+00        6.0770E+00        0.0000E+00
        4.9410E+00        0.0000E+00        5.9980E+00        0.0000E+00
        5.0540E+00        0.0000E+00        5.7870E+00        0.0000E+00
        5.1550E+00        0.0000E+00        5.7240E+00        0.0000E+00
        5.2550E+00        0.0000E+00        5.5530E+00        0.0000E+00
        5.3570E+00        0.0000E+00        5.8320E+00        0.0000E+00
        5.4250E+00        0.0000E+00        5.8720E+00        0.0000E+00
