# entry-subent-pointer  : 22273-017-0 
# EXFOR reaction        : ['94-PU-240', ['0,F'], 'MASS,PRE,FY'] 
# incident energy       : 0.0000e+00 MeV 
# target                : Pu-240 
# product               : 123.0 <= A <= 159.0 
# level energy          : - 
# MF-MT number          : 8 - 460 
# first author          : P.Schillebeeckx 
# institute             : (2BLGBLG): Belgium 
# reference             : (J,NP/A,545,623,1992) 
# year                  : 1992 
# facility              : (REAC): Reactor 
# git                   : https://github.com/IAEA-NDS/exfor_master/blob/main/exforall/222/22273.x4 
# nds                   : https://nds.iaea.org/EXFOR/22273
#
# Charge(No Dim.)    Mass(No Dim.)  Isomer(No Dim.)    Yield(%/fiss)   dYield(%/fiss)
                             123.0                       3.44000E-04      0.00000E+00
                             124.0                       5.44000E-04      0.00000E+00
                             125.0                       1.40800E-03      0.00000E+00
                             126.0                       2.17200E-03      0.00000E+00
                             127.0                       3.93300E-03      0.00000E+00
                             128.0                       8.64800E-03      0.00000E+00
                             129.0                       1.27000E-02      0.00000E+00
                             130.0                       2.28620E-02      0.00000E+00
                             131.0                       3.08650E-02      0.00000E+00
                             132.0                       4.16900E-02      0.00000E+00
                             133.0                       6.02530E-02      0.00000E+00
                             134.0                       6.95510E-02      0.00000E+00
                             135.0                       7.27390E-02      0.00000E+00
                             136.0                       6.96850E-02      0.00000E+00
                             137.0                       7.05490E-02      0.00000E+00
                             138.0                       6.38420E-02      0.00000E+00
                             139.0                       6.24820E-02      0.00000E+00
                             140.0                       5.79000E-02      0.00000E+00
                             141.0                       5.22560E-02      0.00000E+00
                             142.0                       4.94010E-02      0.00000E+00
                             143.0                       4.75090E-02      0.00000E+00
                             144.0                       4.26950E-02      0.00000E+00
                             145.0                       3.67850E-02      0.00000E+00
                             146.0                       2.89820E-02      0.00000E+00
                             147.0                       2.73560E-02      0.00000E+00
                             148.0                       1.82580E-02      0.00000E+00
                             149.0                       1.34110E-02      0.00000E+00
                             150.0                       1.03240E-02      0.00000E+00
                             151.0                       6.73800E-03      0.00000E+00
                             152.0                       5.74300E-03      0.00000E+00
                             153.0                       5.64400E-03      0.00000E+00
                             154.0                       3.28700E-03      0.00000E+00
                             155.0                       1.95900E-03      0.00000E+00
                             156.0                       2.49100E-03      0.00000E+00
                             157.0                       1.42900E-03      0.00000E+00
                             158.0                       1.09800E-03      0.00000E+00
                             159.0                       9.66000E-04      0.00000E+00
