# entry-subent-pointer  : 10506-002-2 
# EXFOR reaction        : ['92-U-238', ['N,F'], ',,SIG'] 
# incident energy       : 5.3340e+00 MeV - 1.0400e+01 MeV 
# target                : U-238 
# product               : - 
# level energy          : - 
# MF-MT number          : 3 - 18 
# first author          : J.W.Meadows 
# institute             : (1USAANL): Argonne National Laboratory, Argonne, IL 
# reference             : (J,NSE,58,255,1975) 
# year                  : 1975 
# facility              : (DYNAM): Dynamitron 
# git                   : https://github.com/IAEA-NDS/exfor_master/blob/main/exforall/105/10506.x4 
# nds                   : https://nds.iaea.org/EXFOR/10506
#
#       E_in(MeV)       dE_in(MeV)            XS(B)           dXS(B)
      5.33400E+00      7.00000E-02      5.51000E-01      0.00000E+00
      5.43900E+00      2.16000E-01      5.48000E-01      0.00000E+00
      5.62200E+00      2.04000E-01      5.65000E-01      0.00000E+00
      5.82600E+00      1.91000E-01      6.05000E-01      0.00000E+00
      6.16800E+00      1.78000E-01      6.83000E-01      0.00000E+00
      6.43000E+00      1.65000E-01      8.21000E-01      0.00000E+00
      6.69200E+00      1.54000E-01      8.96000E-01      0.00000E+00
      6.94900E+00      1.44000E-01      9.49000E-01      0.00000E+00
      7.20400E+00      1.37000E-01      9.89000E-01      0.00000E+00
      7.45700E+00      1.32000E-01      1.03500E+00      0.00000E+00
      7.70900E+00      1.28000E-01      1.02500E+00      0.00000E+00
      7.96000E+00      1.26000E-01      1.02500E+00      0.00000E+00
      8.20800E+00      1.24000E-01      1.01700E+00      0.00000E+00
      8.45500E+00      1.22000E-01      1.01800E+00      0.00000E+00
      8.69000E+00      1.20000E-01      1.00800E+00      0.00000E+00
      8.94600E+00      1.10000E-01      1.02800E+00      0.00000E+00
      9.19100E+00      1.20000E-01      1.02200E+00      0.00000E+00
      9.43300E+00      1.21000E-01      1.03800E+00      0.00000E+00
      9.67500E+00      1.21000E-01      1.02500E+00      0.00000E+00
      9.81800E+00      1.22000E-01      1.03700E+00      0.00000E+00
      1.01600E+01      1.24000E-01      9.95000E-01      0.00000E+00
      1.04000E+01      1.26000E-01      9.64000E-01      0.00000E+00
