# entry-subent-pointer  : 10238-027-1 
# EXFOR reaction        : ['22-TI-47', ['N,P'], '21-SC-47,,SIG'] 
# incident energy       : 4.0140e+00 MeV - 5.9370e+00 MeV 
# target                : Ti-47 
# product               : Sc-47 
# level energy          : - 
# MF-MT number          : 3 - 103 
# first author          : D.L.Smith 
# institute             : (1USAANL): Argonne National Laboratory, Argonne, IL 
# reference             : (J,NSE,58,314,197511) 
# year                  : 1975 
# facility              : (DYNAM): Dynamitron 
# git                   : https://github.com/IAEA-NDS/exfor_master/blob/main/exforall/102/10238.x4 
# nds                   : https://nds.iaea.org/EXFOR/10238
#
#       E_in(MeV)       dE_in(MeV)            XS(B)           dXS(B)
      4.01400E+00      1.10000E-01      6.28700E-02      5.02500E-03
      4.06300E+00      9.00000E-02      7.27100E-02      5.92500E-03
      4.11600E+00      1.12000E-01      6.75900E-02      5.40300E-03
      4.16100E+00      1.22000E-01      7.04100E-02      5.63300E-03
      4.17000E+00      9.20000E-02      7.59100E-02      6.22500E-03
      4.21100E+00      1.22000E-01      6.89900E-02      5.52400E-03
      4.21600E+00      1.12000E-01      6.92000E-02      5.60800E-03
      4.27200E+00      9.20000E-02      7.70800E-02      6.32300E-03
      4.33500E+00      1.56000E-01      7.45900E-02      6.00100E-03
      4.37200E+00      9.60000E-02      7.57200E-02      6.21000E-03
      4.44400E+00      1.48000E-01      7.57600E-02      6.21500E-03
      4.44700E+00      9.80000E-02      7.50200E-02      6.05600E-03
      4.53600E+00      1.56000E-01      7.57600E-02      6.04900E-03
      4.58100E+00      1.00000E-01      8.50500E-02      6.82100E-03
      4.61400E+00      1.26000E-01      7.37300E-02      5.90100E-03
      4.72000E+00      1.72000E-01      7.94200E-02      7.40700E-03
      4.73400E+00      1.58000E-01      8.43200E-02      6.74400E-03
      4.79900E+00      1.56000E-01      7.62300E-02      6.09400E-03
      4.93600E+00      1.60000E-01      8.14100E-02      6.51300E-03
      4.99900E+00      1.56000E-01      8.08700E-02      6.47100E-03
      5.19800E+00      1.60000E-01      7.79100E-02      6.23500E-03
      5.20300E+00      1.56000E-01      8.20800E-02      6.56900E-03
      5.23300E+00      1.72000E-01      8.56500E-02      7.99200E-03
      5.23800E+00      1.60000E-01      7.98000E-02      6.38400E-03
      5.43800E+00      1.64000E-01      8.33700E-02      6.67400E-03
      5.44800E+00      1.52000E-01      8.56900E-02      7.36600E-03
      5.63900E+00      1.64000E-01      9.04900E-02      7.23700E-03
      5.77900E+00      1.64000E-01      9.59900E-02      7.86500E-03
      5.83900E+00      1.66000E-01      1.02200E-01      8.17900E-03
      5.93700E+00      1.66000E-01      1.01400E-01      8.10400E-03
