# entry-subent-pointer  : O1452-003-0 
# EXFOR reaction        : ['94-PU-242', ['P,F'], 'MASS,PRE,FY'] 
# incident energy       : 2.0000e+01 MeV 
# target                : Pu-242 
# product               : 63.0 <= A <= 179.0 
# level energy          : - 
# MF-MT number          : 8 - 460 
# first author          : V.A.Rubchenya 
# institute             : (2SF JYV): University of Jyvaskyla, Jyvaskyla 
# reference             : (J,NP/A,734,253,2004) 
# year                  : 2004 
# facility              : (CYCLO): Cyclotron 
# git                   : https://github.com/IAEA-NDS/exfor_master/blob/main/exforall/O14/O1452.x4 
# nds                   : https://nds.iaea.org/EXFOR/O1452
#
# Charge(No Dim.)    Mass(No Dim.)  Isomer(No Dim.)    Yield(%/fiss)   dYield(%/fiss)
                              63.0                       1.30000E-04      2.00000E-05
                              64.0                       2.70000E-04      3.00000E-05
                              65.0                       2.20000E-04      3.00000E-05
                              66.0                       7.40000E-04      6.00000E-05
                              67.0                       9.60000E-04      6.00000E-05
                              68.0                       1.17000E-03      7.00000E-05
                              69.0                       2.20000E-03      1.00000E-04
                              70.0                       2.83000E-03      1.10000E-04
                              71.0                       4.67000E-03      1.40000E-04
                              72.0                       6.17000E-03      1.60000E-04
                              73.0                       1.01200E-02      2.10000E-04
                              74.0                       1.34500E-02      2.40000E-04
                              75.0                       1.89500E-02      2.80000E-04
                              76.0                       2.77000E-02      3.40000E-04
                              77.0                       3.87700E-02      4.00000E-04
                              78.0                       5.85100E-02      4.90000E-04
                              79.0                       8.06900E-02      5.80000E-04
                              80.0                       1.11730E-01      6.80000E-04
                              81.0                       1.50640E-01      7.90000E-04
                              82.0                       2.01290E-01      9.20000E-04
                              83.0                       2.57970E-01      1.04000E-03
                              84.0                       3.27530E-01      1.17000E-03
                              85.0                       4.10710E-01      1.31000E-03
                              86.0                       5.02920E-01      1.45000E-03
                              87.0                       6.08370E-01      1.59000E-03
                              88.0                       7.28310E-01      1.74000E-03
                              89.0                       8.59500E-01      1.89000E-03
                              90.0                       1.00540E+00      2.05000E-03
                              91.0                       1.18357E+00      2.22000E-03
                              92.0                       1.35282E+00      2.38000E-03
                              93.0                       1.55403E+00      2.55000E-03
                              94.0                       1.76959E+00      2.72000E-03
                              95.0                       1.98892E+00      2.88000E-03
                              96.0                       2.22650E+00      3.05000E-03
                              97.0                       2.49130E+00      3.23000E-03
                              98.0                       2.72429E+00      3.37000E-03
                              99.0                       2.99178E+00      3.53000E-03
                             100.0                       3.22300E+00      3.67000E-03
                             101.0                       3.43945E+00      3.79000E-03
                             102.0                       3.68571E+00      3.92000E-03
                             103.0                       3.85355E+00      4.01000E-03
                             104.0                       4.03163E+00      4.10000E-03
                             105.0                       4.18789E+00      4.18000E-03
                             106.0                       4.25647E+00      4.22000E-03
                             107.0                       4.34994E+00      4.26000E-03
                             108.0                       4.31839E+00      4.25000E-03
                             109.0                       4.32045E+00      4.25000E-03
                             110.0                       4.20202E+00      4.19000E-03
                             111.0                       3.99671E+00      4.09000E-03
                             112.0                       3.82208E+00      3.99000E-03
                             113.0                       3.54239E+00      3.85000E-03
                             114.0                       3.30341E+00      3.71000E-03
                             115.0                       3.07453E+00      3.58000E-03
                             116.0                       2.86187E+00      3.46000E-03
                             117.0                       2.68596E+00      3.35000E-03
                             118.0                       2.52313E+00      3.25000E-03
                             119.0                       2.39305E+00      3.16000E-03
                             120.0                       2.31324E+00      3.11000E-03
                             121.0                       2.23074E+00      3.05000E-03
                             122.0                       2.23074E+00      3.05000E-03
                             123.0                       2.31324E+00      3.11000E-03
                             124.0                       2.39305E+00      3.16000E-03
                             125.0                       2.52313E+00      3.25000E-03
                             126.0                       2.68596E+00      3.35000E-03
                             127.0                       2.86187E+00      3.46000E-03
                             128.0                       3.07453E+00      3.58000E-03
                             129.0                       3.30341E+00      3.71000E-03
                             130.0                       3.54239E+00      3.85000E-03
                             131.0                       3.82208E+00      3.99000E-03
                             132.0                       3.99671E+00      4.09000E-03
                             133.0                       4.20202E+00      4.19000E-03
                             134.0                       4.32045E+00      4.25000E-03
                             135.0                       4.31839E+00      4.25000E-03
                             136.0                       4.34994E+00      4.26000E-03
                             137.0                       4.25647E+00      4.22000E-03
                             138.0                       4.18789E+00      4.18000E-03
                             139.0                       4.03163E+00      4.10000E-03
                             140.0                       3.85355E+00      4.01000E-03
                             141.0                       3.68571E+00      3.92000E-03
                             142.0                       3.43945E+00      3.79000E-03
                             143.0                       3.22300E+00      3.67000E-03
                             144.0                       2.99178E+00      3.53000E-03
                             145.0                       2.72429E+00      3.37000E-03
                             146.0                       2.49130E+00      3.23000E-03
                             147.0                       2.22650E+00      3.05000E-03
                             148.0                       1.98892E+00      2.88000E-03
                             149.0                       1.76959E+00      2.72000E-03
                             150.0                       1.55403E+00      2.55000E-03
                             150.0                       1.35282E+00      2.38000E-03
                             151.0                       1.18357E+00      2.22000E-03
                             152.0                       1.00540E+00      2.05000E-03
                             153.0                       8.59500E-01      1.89000E-03
                             154.0                       7.28310E-01      1.74000E-03
                             155.0                       6.08370E-01      1.59000E-03
                             156.0                       5.02920E-01      1.45000E-03
                             157.0                       4.10710E-01      1.31000E-03
                             158.0                       3.27530E-01      1.17000E-03
                             159.0                       2.57970E-01      1.04000E-03
                             160.0                       2.01290E-01      9.20000E-04
                             161.0                       1.50640E-01      7.90000E-04
                             162.0                       1.11730E-01      6.80000E-04
                             163.0                       8.06900E-02      5.80000E-04
                             164.0                       5.85100E-02      4.90000E-04
                             165.0                       3.87700E-02      4.00000E-04
                             166.0                       2.77000E-02      3.40000E-04
                             167.0                       1.89500E-02      2.80000E-04
                             168.0                       1.34500E-02      2.40000E-04
                             169.0                       1.01200E-02      2.10000E-04
                             170.0                       6.17000E-03      1.60000E-04
                             171.0                       4.67000E-03      1.40000E-04
                             172.0                       2.83000E-03      1.10000E-04
                             173.0                       2.20000E-03      1.00000E-04
                             174.0                       1.17000E-03      7.00000E-05
                             175.0                       9.60000E-04      6.00000E-05
                             176.0                       7.40000E-04      6.00000E-05
                             177.0                       2.20000E-04      3.00000E-05
                             178.0                       2.70000E-04      3.00000E-05
                             179.0                       1.30000E-04      2.00000E-05
