# entry-subent-pointer  : D4242-003-0 
# EXFOR reaction        : (50-SN-0(D,X)51-SB-124,,SIG) 
# incident energy       : 3.4000e+00 MeV - 3.9400e+01 MeV 
# target                : Sn-0 
# product               : Sb-124 
# level energy          : - 
# MF-MT number          : 3 - 10 
# first author          : Tarkanyi 
# institute             : (3HUNDEB): Institute for Nuclear Research (ATOMKI), Debrecen 
# reference             : (J,NIM/B,269,405,2011) 
# year                  : 2011 
# facility              : (CYCLO): Cyclotron 
# git                   : https://github.com/IAEA-NDS/exfor_master/blob/main/exforall/D42/D4242.x4 
# nds                   : https://nds.iaea.org/EXFOR/D4242
#
#       E_in(MeV)         dE_in(MeV)        XS(B)             dXS(B)
        3.4000E+00        0.0000E+00        1.0000E-05        1.0000E-05
        4.5000E+00        0.0000E+00        2.3000E-04        5.0000E-05
        5.5000E+00        0.0000E+00        2.0200E-03        2.4000E-04
        6.4000E+00        0.0000E+00        6.5900E-03        7.4000E-04
        7.2000E+00        0.0000E+00        1.4540E-02        1.6000E-03
        8.0000E+00        0.0000E+00        2.2340E-02        2.4400E-03
        8.7000E+00        0.0000E+00        3.3620E-02        3.6700E-03
        9.4000E+00        0.0000E+00        3.9290E-02        4.2700E-03
        1.1500E+01        0.0000E+00        5.5470E-02        6.0200E-03
        1.3300E+01        0.0000E+00        5.7470E-02        6.2500E-03
        1.4900E+01        0.0000E+00        4.4300E-02        4.7900E-03
        1.5000E+01        0.0000E+00        4.2520E-02        4.6400E-03
        1.6600E+01        0.0000E+00        3.1140E-02        3.4100E-03
        1.7500E+01        0.0000E+00        3.2450E-02        3.5100E-03
        1.8000E+01        0.0000E+00        2.3710E-02        2.6300E-03
        1.9400E+01        0.0000E+00        1.7330E-02        1.9300E-03
        1.9700E+01        0.0000E+00        1.9840E-02        2.1500E-03
        2.0700E+01        0.0000E+00        1.5790E-02        1.7600E-03
        2.1900E+01        0.0000E+00        1.6580E-02        1.7900E-03
        2.3800E+01        0.0000E+00        8.9700E-03        9.7000E-04
        2.5700E+01        0.0000E+00        1.0280E-02        1.1100E-03
        2.7500E+01        0.0000E+00        6.6800E-03        7.2000E-04
        2.9100E+01        0.0000E+00        8.0800E-03        8.7000E-04
        3.0800E+01        0.0000E+00        7.9400E-03        8.6000E-04
        3.5300E+01        0.0000E+00        5.4800E-03        5.9000E-04
        3.6700E+01        0.0000E+00        6.0300E-03        6.5000E-04
        3.9400E+01        0.0000E+00        5.4600E-03        1.4400E-03
