# entry-subent-pointer  : D4260-021-0 
# EXFOR reaction        : ['42-MO-0', ['D,X'], '41-NB-90,CUM,SIG'] 
# incident energy       : 1.0480e+01 MeV - 4.9510e+01 MeV 
# target                : Mo-0 
# product               : Nb-90 
# level energy          : - 
# MF-MT number          : 3 - 10 
# first author          : F.Tarkanyi 
# institute             : (3HUNDEB): Institute for Nuclear Research (ATOMKI), Debrecen 
# reference             : (J,NIM/B,274,1,2012) 
# year                  : 2012 
# facility              : (CYCLO): Cyclotron 
# git                   : https://github.com/IAEA-NDS/exfor_master/blob/main/exforall/D42/D4260.x4 
# nds                   : https://nds.iaea.org/EXFOR/D4260
#
#       E_in(MeV)       dE_in(MeV)            XS(B)           dXS(B)
      4.95100E+01      2.00000E-01      1.30060E-01      1.42300E-02
      4.93500E+01      2.10000E-01      1.34420E-01      1.47700E-02
      4.80100E+01      2.10000E-01      1.27580E-01      1.40700E-02
      4.78600E+01      2.20000E-01      1.29330E-01      1.41400E-02
      4.64900E+01      2.40000E-01      1.19670E-01      1.31000E-02
      4.63300E+01      2.40000E-01      1.23440E-01      1.35300E-02
      4.49200E+01      2.50000E-01      1.08980E-01      1.20100E-02
      4.47500E+01      2.50000E-01      1.16590E-01      1.29000E-02
      4.33000E+01      2.60000E-01      1.00700E-01      1.11900E-02
      4.31300E+01      2.70000E-01      1.02210E-01      1.12000E-02
      4.16400E+01      2.80000E-01      8.52800E-02      9.49000E-03
      4.14700E+01      2.90000E-01      8.78000E-02      9.70000E-03
      3.99300E+01      3.10000E-01      6.94200E-02      7.92000E-03
      3.97400E+01      3.30000E-01      7.31700E-02      8.23000E-03
      3.83200E+01      2.00000E-01      5.40300E-02      5.88000E-03
      3.81400E+01      3.60000E-01      5.37300E-02      6.03000E-03
      3.79600E+01      3.80000E-01      5.53600E-02      6.31000E-03
      3.63100E+01      4.00000E-01      3.66200E-02      4.05000E-03
      3.61100E+01      4.20000E-01      3.96300E-02      4.59000E-03
      3.56700E+01      4.00000E-01      3.48900E-02      3.81000E-03
      3.43900E+01      4.80000E-01      2.48700E-02      2.98000E-03
      3.41900E+01      4.90000E-01      2.67000E-02      3.14000E-03
      3.24000E+01      5.20000E-01      1.96100E-02      2.40000E-03
      3.21900E+01      5.40000E-01      2.03700E-02      2.44000E-03
      3.03000E+01      5.80000E-01      1.53200E-02      1.95000E-03
      3.00800E+01      6.00000E-01      1.72400E-02      2.17000E-03
      2.92700E+01      2.00000E-01      8.17000E-03      1.71000E-03
      2.78000E+01      4.00000E-01      6.46000E-03      1.22000E-03
      2.67500E+01      6.80000E-01      1.02200E-02      1.32000E-03
      2.65100E+01      7.00000E-01      1.15000E-02      1.53000E-03
      2.62700E+01      5.00000E-01      4.19000E-03      1.48000E-03
      2.46800E+01      6.00000E-01      4.34000E-03      1.31000E-03
      2.30900E+01      7.60000E-01      1.85900E-02      2.18000E-03
      2.30100E+01      7.00000E-01      5.90000E-03      1.15000E-03
      2.28300E+01      8.00000E-01      1.28900E-02      1.47000E-03
      2.12600E+01      7.60000E-01      6.02000E-03      1.20000E-03
      1.94100E+01      8.80000E-01      7.04000E-03      1.28000E-03
      1.64600E+01      1.02000E+00      5.98000E-03      1.17000E-03
      1.62500E+01      3.00000E-01      5.11000E-03      7.00000E-04
      1.61600E+01      1.10000E+00      6.84000E-03      1.05000E-03
      1.59100E+01      3.00000E-01      5.13000E-03      6.90000E-04
      1.58500E+01      1.19000E+00      7.40000E-03      1.14000E-03
      1.55700E+01      3.20000E-01      5.47000E-03      7.50000E-04
      1.55500E+01      1.28000E+00      6.56000E-03      1.10000E-03
      1.52200E+01      3.30000E-01      4.90000E-03      6.60000E-04
      1.48600E+01      3.30000E-01      5.85000E-03      7.80000E-04
      1.45000E+01      3.40000E-01      5.17000E-03      6.80000E-04
      1.41600E+01      1.36000E+00      7.73000E-03      1.21000E-03
      1.41400E+01      3.50000E-01      5.25000E-03      7.20000E-04
      1.38200E+01      1.45000E+00      5.76000E-03      1.03000E-03
      1.37600E+01      3.60000E-01      5.57000E-03      7.50000E-04
      1.34800E+01      1.49000E+00      6.63000E-03      1.04000E-03
      1.33800E+01      3.70000E-01      4.89000E-03      6.60000E-04
      1.30000E+01      3.90000E-01      4.05000E-03      5.70000E-04
      1.26000E+01      4.00000E-01      4.90000E-03      7.00000E-04
      1.21900E+01      4.20000E-01      4.56000E-03      6.10000E-04
      1.19200E+01      1.57000E+00      5.71000E-03      1.02000E-03
      1.17800E+01      4.30000E-01      3.62000E-03      5.60000E-04
      1.15500E+01      1.61000E+00      3.59000E-03      8.20000E-04
      1.13600E+01      4.40000E-01      3.17000E-03      4.90000E-04
      1.11600E+01      1.65000E+00      1.97000E-03      9.40000E-04
      1.09200E+01      4.60000E-01      3.04000E-03      4.90000E-04
      1.04800E+01      4.70000E-01      3.15000E-03      6.00000E-04
