# entry-subent-pointer  : 21704-011-0 
# EXFOR reaction        : (94-PU-239(N,F),,SIG) 
# incident energy       : 2.2209e-08 MeV - 1.9991e-06 MeV 
# target                : Pu-239 
# product               : - 
# level energy          : - 
# MF-MT number          : 3 - 18 
# first author          : Wagemans 
# institute             : (2BLGMOL): SCK CEN (Belgian Nuclear Research Centre), Mol 
# reference             : (J,ANE,7,495,1980) 
# year                  : 1980 
# facility              : (LINAC): Linear accelerator 
# git                   : https://github.com/IAEA-NDS/exfor_master/blob/main/exforall/217/21704.x4 
# nds                   : https://nds.iaea.org/EXFOR/21704
#
#       E_in(MeV)         dE_in(MeV)        XS(B)             dXS(B)
        1.9991E-06        0.0000E+00        1.4743E+01        0.0000E+00
        1.9662E-06        0.0000E+00        1.8101E+01        0.0000E+00
        1.9342E-06        0.0000E+00        2.2061E+01        0.0000E+00
        1.9029E-06        0.0000E+00        2.3091E+01        0.0000E+00
        1.8724E-06        0.0000E+00        1.7800E+01        0.0000E+00
        1.8426E-06        0.0000E+00        2.1726E+01        0.0000E+00
        1.8135E-06        0.0000E+00        1.9239E+01        0.0000E+00
        1.7851E-06        0.0000E+00        2.3098E+01        0.0000E+00
        1.7574E-06        0.0000E+00        1.6259E+01        0.0000E+00
        1.7302E-06        0.0000E+00        2.1442E+01        0.0000E+00
        1.7038E-06        0.0000E+00        2.0100E+01        0.0000E+00
        1.6779E-06        0.0000E+00        2.2010E+01        0.0000E+00
        1.6526E-06        0.0000E+00        2.0635E+01        0.0000E+00
        1.6279E-06        0.0000E+00        1.8111E+01        0.0000E+00
        1.6037E-06        0.0000E+00        1.9064E+01        0.0000E+00
        1.5801E-06        0.0000E+00        2.1481E+01        0.0000E+00
        1.5569E-06        0.0000E+00        2.2108E+01        0.0000E+00
        1.5343E-06        0.0000E+00        1.7972E+01        0.0000E+00
        1.5122E-06        0.0000E+00        1.5871E+01        0.0000E+00
        1.4905E-06        0.0000E+00        2.2745E+01        0.0000E+00
        1.4693E-06        0.0000E+00        2.0843E+01        0.0000E+00
        1.4486E-06        0.0000E+00        2.1819E+01        0.0000E+00
        1.4283E-06        0.0000E+00        2.4676E+01        0.0000E+00
        1.4084E-06        0.0000E+00        2.0498E+01        0.0000E+00
        1.3889E-06        0.0000E+00        2.3647E+01        0.0000E+00
        1.3699E-06        0.0000E+00        2.4413E+01        0.0000E+00
        1.3512E-06        0.0000E+00        2.8796E+01        0.0000E+00
        1.3329E-06        0.0000E+00        2.7197E+01        0.0000E+00
        1.3150E-06        0.0000E+00        2.2681E+01        0.0000E+00
        1.2974E-06        0.0000E+00        2.7558E+01        0.0000E+00
        1.2802E-06        0.0000E+00        2.9561E+01        0.0000E+00
        1.2633E-06        0.0000E+00        2.7134E+01        0.0000E+00
        1.2468E-06        0.0000E+00        2.2269E+01        0.0000E+00
        1.2305E-06        0.0000E+00        3.0865E+01        0.0000E+00
        1.2146E-06        0.0000E+00        3.2951E+01        0.0000E+00
        1.1990E-06        0.0000E+00        3.1805E+01        0.0000E+00
        1.1837E-06        0.0000E+00        3.4645E+01        0.0000E+00
        1.1687E-06        0.0000E+00        2.3508E+01        0.0000E+00
        1.1540E-06        0.0000E+00        3.0168E+01        0.0000E+00
        1.1395E-06        0.0000E+00        2.9319E+01        0.0000E+00
        1.1253E-06        0.0000E+00        3.6317E+01        0.0000E+00
        1.1114E-06        0.0000E+00        3.1948E+01        0.0000E+00
        1.0977E-06        0.0000E+00        3.6914E+01        0.0000E+00
        1.0843E-06        0.0000E+00        3.6353E+01        0.0000E+00
        1.0712E-06        0.0000E+00        3.6940E+01        0.0000E+00
        1.0582E-06        0.0000E+00        3.8200E+01        0.0000E+00
        1.0455E-06        0.0000E+00        3.2726E+01        0.0000E+00
        1.0331E-06        0.0000E+00        3.7671E+01        0.0000E+00
        1.0208E-06        0.0000E+00        3.4582E+01        0.0000E+00
        1.0088E-06        0.0000E+00        4.0017E+01        0.0000E+00
        9.9696E-07        0.0000E+00        3.7753E+01        0.0000E+00
        9.8534E-07        0.0000E+00        3.7510E+01        0.0000E+00
        9.7393E-07        0.0000E+00        3.6492E+01        0.0000E+00
        9.6272E-07        0.0000E+00        3.5510E+01        0.0000E+00
        9.5169E-07        0.0000E+00        3.5198E+01        0.0000E+00
        9.4086E-07        0.0000E+00        4.4926E+01        0.0000E+00
        9.3021E-07        0.0000E+00        3.8711E+01        0.0000E+00
        9.1974E-07        0.0000E+00        4.3415E+01        0.0000E+00
        9.0944E-07        0.0000E+00        4.3653E+01        0.0000E+00
        8.9932E-07        0.0000E+00        4.2415E+01        0.0000E+00
        8.8936E-07        0.0000E+00        4.8491E+01        0.0000E+00
        8.7957E-07        0.0000E+00        5.8243E+01        0.0000E+00
        8.6994E-07        0.0000E+00        4.3670E+01        0.0000E+00
        8.6047E-07        0.0000E+00        5.7114E+01        0.0000E+00
        8.5115E-07        0.0000E+00        4.9418E+01        0.0000E+00
        8.4198E-07        0.0000E+00        4.7815E+01        0.0000E+00
        8.3296E-07        0.0000E+00        5.0606E+01        0.0000E+00
        8.2409E-07        0.0000E+00        5.3671E+01        0.0000E+00
        8.1535E-07        0.0000E+00        4.9179E+01        0.0000E+00
        8.0675E-07        0.0000E+00        4.6491E+01        0.0000E+00
        7.9829E-07        0.0000E+00        5.4994E+01        0.0000E+00
        7.8996E-07        0.0000E+00        5.2209E+01        0.0000E+00
        7.8176E-07        0.0000E+00        6.1349E+01        0.0000E+00
        7.7369E-07        0.0000E+00        6.0153E+01        0.0000E+00
        7.6574E-07        0.0000E+00        6.6457E+01        0.0000E+00
        7.5792E-07        0.0000E+00        5.4032E+01        0.0000E+00
        7.5021E-07        0.0000E+00        5.6516E+01        0.0000E+00
        7.4262E-07        0.0000E+00        5.8989E+01        0.0000E+00
        7.3514E-07        0.0000E+00        5.3381E+01        0.0000E+00
        7.2778E-07        0.0000E+00        7.0234E+01        0.0000E+00
        7.2053E-07        0.0000E+00        7.6479E+01        0.0000E+00
        7.1338E-07        0.0000E+00        6.4997E+01        0.0000E+00
        7.0634E-07        0.0000E+00        7.0426E+01        0.0000E+00
        6.9941E-07        0.0000E+00        8.1315E+01        0.0000E+00
        6.9257E-07        0.0000E+00        7.9354E+01        0.0000E+00
        6.8584E-07        0.0000E+00        7.6817E+01        0.0000E+00
        6.7920E-07        0.0000E+00        7.7958E+01        0.0000E+00
        6.7266E-07        0.0000E+00        9.4545E+01        0.0000E+00
        6.6621E-07        0.0000E+00        8.0560E+01        0.0000E+00
        6.5986E-07        0.0000E+00        6.8879E+01        0.0000E+00
        6.5359E-07        0.0000E+00        9.3246E+01        0.0000E+00
        6.4742E-07        0.0000E+00        8.5549E+01        0.0000E+00
        6.4133E-07        0.0000E+00        8.4755E+01        0.0000E+00
        6.3533E-07        0.0000E+00        8.0764E+01        0.0000E+00
        6.2941E-07        0.0000E+00        9.4889E+01        0.0000E+00
        6.2357E-07        0.0000E+00        1.1087E+02        0.0000E+00
        6.1782E-07        0.0000E+00        9.9258E+01        0.0000E+00
        6.1214E-07        0.0000E+00        9.1638E+01        0.0000E+00
        6.0654E-07        0.0000E+00        9.8083E+01        0.0000E+00
        6.0102E-07        0.0000E+00        1.1812E+02        0.0000E+00
        5.9557E-07        0.0000E+00        1.0703E+02        0.0000E+00
        5.9020E-07        0.0000E+00        1.2306E+02        0.0000E+00
        5.8490E-07        0.0000E+00        1.1608E+02        0.0000E+00
        5.7967E-07        0.0000E+00        1.3862E+02        0.0000E+00
        5.7451E-07        0.0000E+00        1.2260E+02        0.0000E+00
        5.6942E-07        0.0000E+00        1.3373E+02        0.0000E+00
        5.6439E-07        0.0000E+00        1.3607E+02        0.0000E+00
        5.5943E-07        0.0000E+00        1.3342E+02        0.0000E+00
        5.5454E-07        0.0000E+00        1.5513E+02        0.0000E+00
        5.4971E-07        0.0000E+00        1.4315E+02        0.0000E+00
        5.4495E-07        0.0000E+00        1.4889E+02        0.0000E+00
        5.4024E-07        0.0000E+00        1.6615E+02        0.0000E+00
        5.3560E-07        0.0000E+00        1.6282E+02        0.0000E+00
        5.3101E-07        0.0000E+00        1.6861E+02        0.0000E+00
        5.2649E-07        0.0000E+00        1.8311E+02        0.0000E+00
        5.2202E-07        0.0000E+00        1.7385E+02        0.0000E+00
        5.1761E-07        0.0000E+00        1.9114E+02        0.0000E+00
        5.1325E-07        0.0000E+00        1.8432E+02        0.0000E+00
        5.0895E-07        0.0000E+00        2.0737E+02        0.0000E+00
        5.0471E-07        0.0000E+00        1.8623E+02        0.0000E+00
        5.0051E-07        0.0000E+00        2.1363E+02        0.0000E+00
        4.9637E-07        0.0000E+00        1.8844E+02        0.0000E+00
        4.9228E-07        0.0000E+00        2.4820E+02        0.0000E+00
        4.8824E-07        0.0000E+00        2.5014E+02        0.0000E+00
        4.8425E-07        0.0000E+00        2.3681E+02        0.0000E+00
        4.8031E-07        0.0000E+00        2.3416E+02        0.0000E+00
        4.7641E-07        0.0000E+00        2.6154E+02        0.0000E+00
        4.7257E-07        0.0000E+00        2.7208E+02        0.0000E+00
        4.6876E-07        0.0000E+00        2.7324E+02        0.0000E+00
        4.6501E-07        0.0000E+00        2.6751E+02        0.0000E+00
        4.6130E-07        0.0000E+00        2.7458E+02        0.0000E+00
        4.5763E-07        0.0000E+00        3.1566E+02        0.0000E+00
        4.5401E-07        0.0000E+00        3.1754E+02        0.0000E+00
        4.5043E-07        0.0000E+00        3.0814E+02        0.0000E+00
        4.4689E-07        0.0000E+00        3.7170E+02        0.0000E+00
        4.4340E-07        0.0000E+00        3.5230E+02        0.0000E+00
        4.3994E-07        0.0000E+00        3.6380E+02        0.0000E+00
        4.3653E-07        0.0000E+00        3.8100E+02        0.0000E+00
        4.3315E-07        0.0000E+00        3.9786E+02        0.0000E+00
        4.2982E-07        0.0000E+00        4.2690E+02        0.0000E+00
        4.2652E-07        0.0000E+00        4.4564E+02        0.0000E+00
        4.2326E-07        0.0000E+00        4.5179E+02        0.0000E+00
        4.2004E-07        0.0000E+00        4.8911E+02        0.0000E+00
        4.1685E-07        0.0000E+00        5.2415E+02        0.0000E+00
        4.1370E-07        0.0000E+00        5.0810E+02        0.0000E+00
        4.1059E-07        0.0000E+00        5.2297E+02        0.0000E+00
        4.0751E-07        0.0000E+00        5.7181E+02        0.0000E+00
        4.0446E-07        0.0000E+00        5.9764E+02        0.0000E+00
        4.0145E-07        0.0000E+00        5.9848E+02        0.0000E+00
        3.9848E-07        0.0000E+00        6.4969E+02        0.0000E+00
        3.9553E-07        0.0000E+00        6.7699E+02        0.0000E+00
        3.9262E-07        0.0000E+00        6.5646E+02        0.0000E+00
        3.8974E-07        0.0000E+00        7.4714E+02        0.0000E+00
        3.8689E-07        0.0000E+00        7.8167E+02        0.0000E+00
        3.8407E-07        0.0000E+00        8.2870E+02        0.0000E+00
        3.8129E-07        0.0000E+00        8.3934E+02        0.0000E+00
        3.7853E-07        0.0000E+00        8.8159E+02        0.0000E+00
        3.7581E-07        0.0000E+00        9.5043E+02        0.0000E+00
        3.7311E-07        0.0000E+00        9.7410E+02        0.0000E+00
        3.7044E-07        0.0000E+00        1.0207E+03        0.0000E+00
        3.6780E-07        0.0000E+00        1.0639E+03        0.0000E+00
        3.6519E-07        0.0000E+00        1.1858E+03        0.0000E+00
        3.6261E-07        0.0000E+00        1.2003E+03        0.0000E+00
        3.6005E-07        0.0000E+00        1.3404E+03        0.0000E+00
        3.5752E-07        0.0000E+00        1.3476E+03        0.0000E+00
        3.5502E-07        0.0000E+00        1.3676E+03        0.0000E+00
        3.5254E-07        0.0000E+00        1.4801E+03        0.0000E+00
        3.5009E-07        0.0000E+00        1.5291E+03        0.0000E+00
        3.4766E-07        0.0000E+00        1.5808E+03        0.0000E+00
        3.4526E-07        0.0000E+00        1.7373E+03        0.0000E+00
        3.4289E-07        0.0000E+00        1.7968E+03        0.0000E+00
        3.4054E-07        0.0000E+00        1.8500E+03        0.0000E+00
        3.3821E-07        0.0000E+00        1.9448E+03        0.0000E+00
        3.3591E-07        0.0000E+00        2.0570E+03        0.0000E+00
        3.3363E-07        0.0000E+00        2.1418E+03        0.0000E+00
        3.3137E-07        0.0000E+00        2.2219E+03        0.0000E+00
        3.2914E-07        0.0000E+00        2.3452E+03        0.0000E+00
        3.2692E-07        0.0000E+00        2.3652E+03        0.0000E+00
        3.2474E-07        0.0000E+00        2.5985E+03        0.0000E+00
        3.2257E-07        0.0000E+00        2.5778E+03        0.0000E+00
        3.2042E-07        0.0000E+00        2.7417E+03        0.0000E+00
        3.1830E-07        0.0000E+00        2.8518E+03        0.0000E+00
        3.1619E-07        0.0000E+00        2.9332E+03        0.0000E+00
        3.1411E-07        0.0000E+00        2.9081E+03        0.0000E+00
        3.1205E-07        0.0000E+00        2.9605E+03        0.0000E+00
        3.1001E-07        0.0000E+00        2.9850E+03        0.0000E+00
        3.0799E-07        0.0000E+00        3.1418E+03        0.0000E+00
        3.0599E-07        0.0000E+00        3.1210E+03        0.0000E+00
        3.0400E-07        0.0000E+00        3.2257E+03        0.0000E+00
        3.0204E-07        0.0000E+00        3.2202E+03        0.0000E+00
        3.0009E-07        0.0000E+00        3.1991E+03        0.0000E+00
        2.9817E-07        0.0000E+00        3.2448E+03        0.0000E+00
        2.9626E-07        0.0000E+00        3.3792E+03        0.0000E+00
        2.9437E-07        0.0000E+00        3.4162E+03        0.0000E+00
        2.9250E-07        0.0000E+00        3.3945E+03        0.0000E+00
        2.9065E-07        0.0000E+00        3.2460E+03        0.0000E+00
        2.8881E-07        0.0000E+00        3.3329E+03        0.0000E+00
        2.8700E-07        0.0000E+00        3.1463E+03        0.0000E+00
        2.8519E-07        0.0000E+00        3.1420E+03        0.0000E+00
        2.8341E-07        0.0000E+00        3.2542E+03        0.0000E+00
        2.8164E-07        0.0000E+00        3.2183E+03        0.0000E+00
        2.7989E-07        0.0000E+00        3.0603E+03        0.0000E+00
        2.7816E-07        0.0000E+00        3.1441E+03        0.0000E+00
        2.7644E-07        0.0000E+00        2.8868E+03        0.0000E+00
        2.7473E-07        0.0000E+00        2.8137E+03        0.0000E+00
        2.7305E-07        0.0000E+00        2.7653E+03        0.0000E+00
        2.7138E-07        0.0000E+00        2.7006E+03        0.0000E+00
        2.6972E-07        0.0000E+00        2.7241E+03        0.0000E+00
        2.6808E-07        0.0000E+00        2.6407E+03        0.0000E+00
        2.6645E-07        0.0000E+00        2.5672E+03        0.0000E+00
        2.6484E-07        0.0000E+00        2.4974E+03        0.0000E+00
        2.6324E-07        0.0000E+00        2.4598E+03        0.0000E+00
        2.6166E-07        0.0000E+00        2.4159E+03        0.0000E+00
        2.6009E-07        0.0000E+00        2.2819E+03        0.0000E+00
        2.5854E-07        0.0000E+00        2.1881E+03        0.0000E+00
        2.5700E-07        0.0000E+00        2.1683E+03        0.0000E+00
        2.5547E-07        0.0000E+00        2.2533E+03        0.0000E+00
        2.5396E-07        0.0000E+00        1.9787E+03        0.0000E+00
        2.5246E-07        0.0000E+00        1.9815E+03        0.0000E+00
        2.5097E-07        0.0000E+00        1.9615E+03        0.0000E+00
        2.4950E-07        0.0000E+00        1.9065E+03        0.0000E+00
        2.4804E-07        0.0000E+00        1.8844E+03        0.0000E+00
        2.4659E-07        0.0000E+00        1.8630E+03        0.0000E+00
        2.4516E-07        0.0000E+00        1.7708E+03        0.0000E+00
        2.4373E-07        0.0000E+00        1.8195E+03        0.0000E+00
        2.4232E-07        0.0000E+00        1.6491E+03        0.0000E+00
        2.4092E-07        0.0000E+00        1.6771E+03        0.0000E+00
        2.3954E-07        0.0000E+00        1.6683E+03        0.0000E+00
        2.3816E-07        0.0000E+00        1.6084E+03        0.0000E+00
        2.3680E-07        0.0000E+00        1.5668E+03        0.0000E+00
        2.3545E-07        0.0000E+00        1.4215E+03        0.0000E+00
        2.3411E-07        0.0000E+00        1.4648E+03        0.0000E+00
        2.3279E-07        0.0000E+00        1.3545E+03        0.0000E+00
        2.3147E-07        0.0000E+00        1.4380E+03        0.0000E+00
        2.3016E-07        0.0000E+00        1.3922E+03        0.0000E+00
        2.2887E-07        0.0000E+00        1.3369E+03        0.0000E+00
        2.2759E-07        0.0000E+00        1.2847E+03        0.0000E+00
        2.2631E-07        0.0000E+00        1.3032E+03        0.0000E+00
        2.2505E-07        0.0000E+00        1.2755E+03        0.0000E+00
        2.2380E-07        0.0000E+00        1.2098E+03        0.0000E+00
        2.2256E-07        0.0000E+00        1.2581E+03        0.0000E+00
        2.2133E-07        0.0000E+00        1.1806E+03        0.0000E+00
        2.2011E-07        0.0000E+00        1.1471E+03        0.0000E+00
        2.1890E-07        0.0000E+00        1.1313E+03        0.0000E+00
        2.1770E-07        0.0000E+00        1.1349E+03        0.0000E+00
        2.1651E-07        0.0000E+00        1.1450E+03        0.0000E+00
        2.1533E-07        0.0000E+00        1.0483E+03        0.0000E+00
        2.1415E-07        0.0000E+00        1.1570E+03        0.0000E+00
        2.1299E-07        0.0000E+00        9.4876E+02        0.0000E+00
        2.1184E-07        0.0000E+00        1.0425E+03        0.0000E+00
        2.1070E-07        0.0000E+00        9.8082E+02        0.0000E+00
        2.0956E-07        0.0000E+00        9.9119E+02        0.0000E+00
        2.0844E-07        0.0000E+00        9.8758E+02        0.0000E+00
        2.0732E-07        0.0000E+00        9.8901E+02        0.0000E+00
        2.0622E-07        0.0000E+00        8.9046E+02        0.0000E+00
        2.0512E-07        0.0000E+00        9.4472E+02        0.0000E+00
        2.0403E-07        0.0000E+00        9.4314E+02        0.0000E+00
        2.0295E-07        0.0000E+00        9.3868E+02        0.0000E+00
        2.0188E-07        0.0000E+00        9.6321E+02        0.0000E+00
        2.0081E-07        0.0000E+00        8.8687E+02        0.0000E+00
        1.9976E-07        0.0000E+00        8.7062E+02        0.0000E+00
        1.9871E-07        0.0000E+00        8.8988E+02        0.0000E+00
        1.9767E-07        0.0000E+00        8.6487E+02        0.0000E+00
        1.9664E-07        0.0000E+00        7.9861E+02        0.0000E+00
        1.9562E-07        0.0000E+00        8.8546E+02        0.0000E+00
        1.9461E-07        0.0000E+00        8.5927E+02        0.0000E+00
        1.9360E-07        0.0000E+00        8.2441E+02        0.0000E+00
        1.9260E-07        0.0000E+00        7.4685E+02        0.0000E+00
        1.9161E-07        0.0000E+00        7.6980E+02        0.0000E+00
        1.9063E-07        0.0000E+00        7.7393E+02        0.0000E+00
        1.8965E-07        0.0000E+00        7.8142E+02        0.0000E+00
        1.8868E-07        0.0000E+00        7.4486E+02        0.0000E+00
        1.8772E-07        0.0000E+00        7.5972E+02        0.0000E+00
        1.8677E-07        0.0000E+00        7.5862E+02        0.0000E+00
        1.8582E-07        0.0000E+00        7.5584E+02        0.0000E+00
        1.8488E-07        0.0000E+00        7.2917E+02        0.0000E+00
        1.8395E-07        0.0000E+00        7.0013E+02        0.0000E+00
        1.8302E-07        0.0000E+00        7.2667E+02        0.0000E+00
        1.8211E-07        0.0000E+00        7.0413E+02        0.0000E+00
        1.8120E-07        0.0000E+00        7.2068E+02        0.0000E+00
        1.8029E-07        0.0000E+00        7.0674E+02        0.0000E+00
        1.7939E-07        0.0000E+00        6.7924E+02        0.0000E+00
        1.7850E-07        0.0000E+00        6.6748E+02        0.0000E+00
        1.7762E-07        0.0000E+00        6.6981E+02        0.0000E+00
        1.7674E-07        0.0000E+00        6.7743E+02        0.0000E+00
        1.7587E-07        0.0000E+00        6.7166E+02        0.0000E+00
        1.7500E-07        0.0000E+00        6.5123E+02        0.0000E+00
        1.7415E-07        0.0000E+00        6.7771E+02        0.0000E+00
        1.7329E-07        0.0000E+00        6.6691E+02        0.0000E+00
        1.7245E-07        0.0000E+00        6.1222E+02        0.0000E+00
        1.7161E-07        0.0000E+00        6.5400E+02        0.0000E+00
        1.7077E-07        0.0000E+00        6.6539E+02        0.0000E+00
        1.6995E-07        0.0000E+00        6.2188E+02        0.0000E+00
        1.6912E-07        0.0000E+00        6.6149E+02        0.0000E+00
        1.6831E-07        0.0000E+00        6.4445E+02        0.0000E+00
        1.6750E-07        0.0000E+00        6.1985E+02        0.0000E+00
        1.6669E-07        0.0000E+00        6.0862E+02        0.0000E+00
        1.6590E-07        0.0000E+00        6.1339E+02        0.0000E+00
        1.6510E-07        0.0000E+00        6.4371E+02        0.0000E+00
        1.6432E-07        0.0000E+00        5.7444E+02        0.0000E+00
        1.6354E-07        0.0000E+00        5.9918E+02        0.0000E+00
        1.6276E-07        0.0000E+00        6.1366E+02        0.0000E+00
        1.6199E-07        0.0000E+00        5.9705E+02        0.0000E+00
        1.6123E-07        0.0000E+00        6.3697E+02        0.0000E+00
        1.6047E-07        0.0000E+00        5.9219E+02        0.0000E+00
        1.5971E-07        0.0000E+00        5.8509E+02        0.0000E+00
        1.5896E-07        0.0000E+00        5.7887E+02        0.0000E+00
        1.5822E-07        0.0000E+00        5.9552E+02        0.0000E+00
        1.5748E-07        0.0000E+00        5.9312E+02        0.0000E+00
        1.5675E-07        0.0000E+00        5.6832E+02        0.0000E+00
        1.5602E-07        0.0000E+00        6.0685E+02        0.0000E+00
        1.5530E-07        0.0000E+00        5.8227E+02        0.0000E+00
        1.5458E-07        0.0000E+00        5.6947E+02        0.0000E+00
        1.5387E-07        0.0000E+00        5.9299E+02        0.0000E+00
        1.5316E-07        0.0000E+00        5.7703E+02        0.0000E+00
        1.5246E-07        0.0000E+00        6.0061E+02        0.0000E+00
        1.5176E-07        0.0000E+00        5.5687E+02        0.0000E+00
        1.5106E-07        0.0000E+00        5.6665E+02        0.0000E+00
        1.5038E-07        0.0000E+00        5.8188E+02        0.0000E+00
        1.4969E-07        0.0000E+00        5.5907E+02        0.0000E+00
        1.4901E-07        0.0000E+00        5.4799E+02        0.0000E+00
        1.4834E-07        0.0000E+00        5.6084E+02        0.0000E+00
        1.4767E-07        0.0000E+00        5.6097E+02        0.0000E+00
        1.4700E-07        0.0000E+00        5.4870E+02        0.0000E+00
        1.4634E-07        0.0000E+00        5.5878E+02        0.0000E+00
        1.4568E-07        0.0000E+00        5.5875E+02        0.0000E+00
        1.4503E-07        0.0000E+00        5.1287E+02        0.0000E+00
        1.4438E-07        0.0000E+00        5.4507E+02        0.0000E+00
        1.4374E-07        0.0000E+00        5.3464E+02        0.0000E+00
        1.4310E-07        0.0000E+00        5.1542E+02        0.0000E+00
        1.4247E-07        0.0000E+00        5.4469E+02        0.0000E+00
        1.4184E-07        0.0000E+00        5.6472E+02        0.0000E+00
        1.4121E-07        0.0000E+00        5.2918E+02        0.0000E+00
        1.4059E-07        0.0000E+00        5.5914E+02        0.0000E+00
        1.3997E-07        0.0000E+00        5.8923E+02        0.0000E+00
        1.3935E-07        0.0000E+00        5.4059E+02        0.0000E+00
        1.3874E-07        0.0000E+00        5.3068E+02        0.0000E+00
        1.3814E-07        0.0000E+00        5.1600E+02        0.0000E+00
        1.3753E-07        0.0000E+00        5.3109E+02        0.0000E+00
        1.3694E-07        0.0000E+00        5.2710E+02        0.0000E+00
        1.3634E-07        0.0000E+00        5.4847E+02        0.0000E+00
        1.3575E-07        0.0000E+00        5.1962E+02        0.0000E+00
        1.3516E-07        0.0000E+00        5.5229E+02        0.0000E+00
        1.3458E-07        0.0000E+00        5.3459E+02        0.0000E+00
        1.3400E-07        0.0000E+00        5.4676E+02        0.0000E+00
        1.3343E-07        0.0000E+00        5.3841E+02        0.0000E+00
        1.3285E-07        0.0000E+00        5.5689E+02        0.0000E+00
        1.3229E-07        0.0000E+00        5.4332E+02        0.0000E+00
        1.3172E-07        0.0000E+00        5.5615E+02        0.0000E+00
        1.3116E-07        0.0000E+00        5.1898E+02        0.0000E+00
        1.3060E-07        0.0000E+00        4.8513E+02        0.0000E+00
        1.3005E-07        0.0000E+00        4.9250E+02        0.0000E+00
        1.2950E-07        0.0000E+00        5.3753E+02        0.0000E+00
        1.2895E-07        0.0000E+00        5.1646E+02        0.0000E+00
        1.2841E-07        0.0000E+00        4.8785E+02        0.0000E+00
        1.2787E-07        0.0000E+00        5.1221E+02        0.0000E+00
        1.2733E-07        0.0000E+00        5.0549E+02        0.0000E+00
        1.2680E-07        0.0000E+00        5.0572E+02        0.0000E+00
        1.2627E-07        0.0000E+00        5.2287E+02        0.0000E+00
        1.2574E-07        0.0000E+00        4.9759E+02        0.0000E+00
        1.2522E-07        0.0000E+00        5.4604E+02        0.0000E+00
        1.2470E-07        0.0000E+00        4.9915E+02        0.0000E+00
        1.2418E-07        0.0000E+00        4.9599E+02        0.0000E+00
        1.2367E-07        0.0000E+00        5.4147E+02        0.0000E+00
        1.2316E-07        0.0000E+00        4.7019E+02        0.0000E+00
        1.2265E-07        0.0000E+00        4.8254E+02        0.0000E+00
        1.2215E-07        0.0000E+00        4.8911E+02        0.0000E+00
        1.2165E-07        0.0000E+00        5.0168E+02        0.0000E+00
        1.2115E-07        0.0000E+00        4.8802E+02        0.0000E+00
        1.2066E-07        0.0000E+00        5.0554E+02        0.0000E+00
        1.2016E-07        0.0000E+00        5.2592E+02        0.0000E+00
        1.1967E-07        0.0000E+00        4.9625E+02        0.0000E+00
        1.1919E-07        0.0000E+00        5.2205E+02        0.0000E+00
        1.1871E-07        0.0000E+00        5.1068E+02        0.0000E+00
        1.1823E-07        0.0000E+00        4.9395E+02        0.0000E+00
        1.1775E-07        0.0000E+00        4.9997E+02        0.0000E+00
        1.1727E-07        0.0000E+00        5.0799E+02        0.0000E+00
        1.1680E-07        0.0000E+00        4.6240E+02        0.0000E+00
        1.1633E-07        0.0000E+00        5.0019E+02        0.0000E+00
        1.1587E-07        0.0000E+00        5.0405E+02        0.0000E+00
        1.1541E-07        0.0000E+00        4.7654E+02        0.0000E+00
        1.1495E-07        0.0000E+00        4.9272E+02        0.0000E+00
        1.1449E-07        0.0000E+00        4.8711E+02        0.0000E+00
        1.1403E-07        0.0000E+00        4.6868E+02        0.0000E+00
        1.1358E-07        0.0000E+00        4.7863E+02        0.0000E+00
        1.1313E-07        0.0000E+00        4.7764E+02        0.0000E+00
        1.1269E-07        0.0000E+00        4.8750E+02        0.0000E+00
        1.1224E-07        0.0000E+00        4.9709E+02        0.0000E+00
        1.1180E-07        0.0000E+00        4.8677E+02        0.0000E+00
        1.1136E-07        0.0000E+00        5.1544E+02        0.0000E+00
        1.1093E-07        0.0000E+00        4.8884E+02        0.0000E+00
        1.1049E-07        0.0000E+00        4.5747E+02        0.0000E+00
        1.1006E-07        0.0000E+00        4.7261E+02        0.0000E+00
        1.0963E-07        0.0000E+00        4.9251E+02        0.0000E+00
        1.0921E-07        0.0000E+00        4.8008E+02        0.0000E+00
        1.0878E-07        0.0000E+00        4.8135E+02        0.0000E+00
        1.0836E-07        0.0000E+00        4.7814E+02        0.0000E+00
        1.0794E-07        0.0000E+00        4.9981E+02        0.0000E+00
        1.0753E-07        0.0000E+00        4.9644E+02        0.0000E+00
        1.0711E-07        0.0000E+00        4.7724E+02        0.0000E+00
        1.0670E-07        0.0000E+00        5.1440E+02        0.0000E+00
        1.0629E-07        0.0000E+00        4.7795E+02        0.0000E+00
        1.0589E-07        0.0000E+00        5.0257E+02        0.0000E+00
        1.0548E-07        0.0000E+00        4.7036E+02        0.0000E+00
        1.0508E-07        0.0000E+00        4.9169E+02        0.0000E+00
        1.0468E-07        0.0000E+00        4.8658E+02        0.0000E+00
        1.0428E-07        0.0000E+00        5.1819E+02        0.0000E+00
        1.0389E-07        0.0000E+00        4.6917E+02        0.0000E+00
        1.0349E-07        0.0000E+00        4.7946E+02        0.0000E+00
        1.0310E-07        0.0000E+00        4.7409E+02        0.0000E+00
        1.0272E-07        0.0000E+00        4.9962E+02        0.0000E+00
        1.0233E-07        0.0000E+00        5.2337E+02        0.0000E+00
        1.0194E-07        0.0000E+00        4.7075E+02        0.0000E+00
        1.0156E-07        0.0000E+00        4.7924E+02        0.0000E+00
        1.0118E-07        0.0000E+00        4.6006E+02        0.0000E+00
        1.0081E-07        0.0000E+00        5.0367E+02        0.0000E+00
        1.0043E-07        0.0000E+00        4.4558E+02        0.0000E+00
        1.0006E-07        0.0000E+00        4.7075E+02        0.0000E+00
        9.9684E-08        0.0000E+00        5.1403E+02        0.0000E+00
        9.9315E-08        0.0000E+00        4.9264E+02        0.0000E+00
        9.8948E-08        0.0000E+00        4.8260E+02        0.0000E+00
        9.8582E-08        0.0000E+00        4.6501E+02        0.0000E+00
        9.8219E-08        0.0000E+00        4.7944E+02        0.0000E+00
        9.7858E-08        0.0000E+00        4.5047E+02        0.0000E+00
        9.7498E-08        0.0000E+00        4.5842E+02        0.0000E+00
        9.7141E-08        0.0000E+00        4.9116E+02        0.0000E+00
        9.6786E-08        0.0000E+00        4.8966E+02        0.0000E+00
        9.6432E-08        0.0000E+00        4.7828E+02        0.0000E+00
        9.6081E-08        0.0000E+00        4.6273E+02        0.0000E+00
        9.5731E-08        0.0000E+00        4.6084E+02        0.0000E+00
        9.5383E-08        0.0000E+00        4.9351E+02        0.0000E+00
        9.5038E-08        0.0000E+00        4.8588E+02        0.0000E+00
        9.4694E-08        0.0000E+00        4.9056E+02        0.0000E+00
        9.4352E-08        0.0000E+00        4.8819E+02        0.0000E+00
        9.4011E-08        0.0000E+00        5.0879E+02        0.0000E+00
        9.3673E-08        0.0000E+00        4.8670E+02        0.0000E+00
        9.3336E-08        0.0000E+00        4.9071E+02        0.0000E+00
        9.3002E-08        0.0000E+00        4.8626E+02        0.0000E+00
        9.2669E-08        0.0000E+00        4.8587E+02        0.0000E+00
        9.2338E-08        0.0000E+00        4.7072E+02        0.0000E+00
        9.2008E-08        0.0000E+00        4.5730E+02        0.0000E+00
        9.1681E-08        0.0000E+00        4.7585E+02        0.0000E+00
        9.1355E-08        0.0000E+00        4.5737E+02        0.0000E+00
        9.1031E-08        0.0000E+00        4.8872E+02        0.0000E+00
        9.0708E-08        0.0000E+00        4.9824E+02        0.0000E+00
        9.0387E-08        0.0000E+00        5.0433E+02        0.0000E+00
        9.0068E-08        0.0000E+00        4.7361E+02        0.0000E+00
        8.9751E-08        0.0000E+00        4.7080E+02        0.0000E+00
        8.9436E-08        0.0000E+00        4.7086E+02        0.0000E+00
        8.9122E-08        0.0000E+00        5.1360E+02        0.0000E+00
        8.8809E-08        0.0000E+00        4.5407E+02        0.0000E+00
        8.8498E-08        0.0000E+00        4.8656E+02        0.0000E+00
        8.8189E-08        0.0000E+00        4.9938E+02        0.0000E+00
        8.7882E-08        0.0000E+00        5.0473E+02        0.0000E+00
        8.7576E-08        0.0000E+00        4.6321E+02        0.0000E+00
        8.7272E-08        0.0000E+00        4.9158E+02        0.0000E+00
        8.6969E-08        0.0000E+00        4.5158E+02        0.0000E+00
        8.6668E-08        0.0000E+00        4.4913E+02        0.0000E+00
        8.6369E-08        0.0000E+00        4.7295E+02        0.0000E+00
        8.6071E-08        0.0000E+00        5.0114E+02        0.0000E+00
        8.5774E-08        0.0000E+00        4.8949E+02        0.0000E+00
        8.5479E-08        0.0000E+00        4.7004E+02        0.0000E+00
        8.5186E-08        0.0000E+00        4.8038E+02        0.0000E+00
        8.4894E-08        0.0000E+00        4.7466E+02        0.0000E+00
        8.4604E-08        0.0000E+00        4.7468E+02        0.0000E+00
        8.4315E-08        0.0000E+00        4.7321E+02        0.0000E+00
        8.4027E-08        0.0000E+00        5.0775E+02        0.0000E+00
        8.3741E-08        0.0000E+00        4.9628E+02        0.0000E+00
        8.3457E-08        0.0000E+00        4.6673E+02        0.0000E+00
        8.3174E-08        0.0000E+00        4.8126E+02        0.0000E+00
        8.2892E-08        0.0000E+00        5.0669E+02        0.0000E+00
        8.2612E-08        0.0000E+00        4.7457E+02        0.0000E+00
        8.2333E-08        0.0000E+00        4.7263E+02        0.0000E+00
        8.2056E-08        0.0000E+00        4.5864E+02        0.0000E+00
        8.1780E-08        0.0000E+00        4.8192E+02        0.0000E+00
        8.1505E-08        0.0000E+00        4.8332E+02        0.0000E+00
        8.1232E-08        0.0000E+00        4.9348E+02        0.0000E+00
        8.0960E-08        0.0000E+00        4.9751E+02        0.0000E+00
        8.0690E-08        0.0000E+00        4.9163E+02        0.0000E+00
        8.0421E-08        0.0000E+00        4.6010E+02        0.0000E+00
        8.0153E-08        0.0000E+00        4.9823E+02        0.0000E+00
        7.9886E-08        0.0000E+00        4.5322E+02        0.0000E+00
        7.9621E-08        0.0000E+00        4.9645E+02        0.0000E+00
        7.9357E-08        0.0000E+00        5.3410E+02        0.0000E+00
        7.9095E-08        0.0000E+00        4.6638E+02        0.0000E+00
        7.8834E-08        0.0000E+00        4.6326E+02        0.0000E+00
        7.8574E-08        0.0000E+00        4.9160E+02        0.0000E+00
        7.8315E-08        0.0000E+00        4.5923E+02        0.0000E+00
        7.8058E-08        0.0000E+00        5.0642E+02        0.0000E+00
        7.7802E-08        0.0000E+00        4.9695E+02        0.0000E+00
        7.7547E-08        0.0000E+00        4.9252E+02        0.0000E+00
        7.7294E-08        0.0000E+00        4.8066E+02        0.0000E+00
        7.7041E-08        0.0000E+00        5.0553E+02        0.0000E+00
        7.6790E-08        0.0000E+00        4.6968E+02        0.0000E+00
        7.6540E-08        0.0000E+00        4.8101E+02        0.0000E+00
        7.6292E-08        0.0000E+00        4.6632E+02        0.0000E+00
        7.6044E-08        0.0000E+00        5.0281E+02        0.0000E+00
        7.5798E-08        0.0000E+00        4.8806E+02        0.0000E+00
        7.5553E-08        0.0000E+00        5.1067E+02        0.0000E+00
        7.5309E-08        0.0000E+00        4.5503E+02        0.0000E+00
        7.5066E-08        0.0000E+00        4.5336E+02        0.0000E+00
        7.4825E-08        0.0000E+00        4.5949E+02        0.0000E+00
        7.4585E-08        0.0000E+00        5.0050E+02        0.0000E+00
        7.4345E-08        0.0000E+00        4.8166E+02        0.0000E+00
        7.4107E-08        0.0000E+00        4.8126E+02        0.0000E+00
        7.3871E-08        0.0000E+00        4.6340E+02        0.0000E+00
        7.3635E-08        0.0000E+00        5.0561E+02        0.0000E+00
        7.3400E-08        0.0000E+00        5.3025E+02        0.0000E+00
        7.3167E-08        0.0000E+00        5.2335E+02        0.0000E+00
        7.2934E-08        0.0000E+00        5.2954E+02        0.0000E+00
        7.2703E-08        0.0000E+00        5.0111E+02        0.0000E+00
        7.2473E-08        0.0000E+00        5.3795E+02        0.0000E+00
        7.2244E-08        0.0000E+00        4.9136E+02        0.0000E+00
        7.2016E-08        0.0000E+00        4.8863E+02        0.0000E+00
        7.1789E-08        0.0000E+00        4.5661E+02        0.0000E+00
        7.1563E-08        0.0000E+00        5.1467E+02        0.0000E+00
        7.1338E-08        0.0000E+00        5.2678E+02        0.0000E+00
        7.1114E-08        0.0000E+00        4.7537E+02        0.0000E+00
        7.0892E-08        0.0000E+00        5.0038E+02        0.0000E+00
        7.0670E-08        0.0000E+00        5.1380E+02        0.0000E+00
        7.0449E-08        0.0000E+00        4.9608E+02        0.0000E+00
        7.0230E-08        0.0000E+00        5.1532E+02        0.0000E+00
        7.0011E-08        0.0000E+00        5.2281E+02        0.0000E+00
        6.9794E-08        0.0000E+00        4.9395E+02        0.0000E+00
        6.9577E-08        0.0000E+00        5.1195E+02        0.0000E+00
        6.9362E-08        0.0000E+00        5.0655E+02        0.0000E+00
        6.9147E-08        0.0000E+00        5.0818E+02        0.0000E+00
        6.8934E-08        0.0000E+00        5.3660E+02        0.0000E+00
        6.8721E-08        0.0000E+00        4.6441E+02        0.0000E+00
        6.8510E-08        0.0000E+00        5.0163E+02        0.0000E+00
        6.8299E-08        0.0000E+00        4.7885E+02        0.0000E+00
        6.8089E-08        0.0000E+00        5.1389E+02        0.0000E+00
        6.7881E-08        0.0000E+00        5.0004E+02        0.0000E+00
        6.7673E-08        0.0000E+00        4.8667E+02        0.0000E+00
        6.7466E-08        0.0000E+00        4.9602E+02        0.0000E+00
        6.7261E-08        0.0000E+00        5.1749E+02        0.0000E+00
        6.7056E-08        0.0000E+00        4.6656E+02        0.0000E+00
        6.6852E-08        0.0000E+00        5.4080E+02        0.0000E+00
        6.6649E-08        0.0000E+00        5.4509E+02        0.0000E+00
        6.6447E-08        0.0000E+00        4.9230E+02        0.0000E+00
        6.6245E-08        0.0000E+00        5.3612E+02        0.0000E+00
        6.6045E-08        0.0000E+00        4.9200E+02        0.0000E+00
        6.5846E-08        0.0000E+00        4.9264E+02        0.0000E+00
        6.5648E-08        0.0000E+00        4.9515E+02        0.0000E+00
        6.5450E-08        0.0000E+00        5.2313E+02        0.0000E+00
        6.5253E-08        0.0000E+00        5.1249E+02        0.0000E+00
        6.5058E-08        0.0000E+00        5.2566E+02        0.0000E+00
        6.4863E-08        0.0000E+00        4.8440E+02        0.0000E+00
        6.4669E-08        0.0000E+00        5.3865E+02        0.0000E+00
        6.4476E-08        0.0000E+00        4.8976E+02        0.0000E+00
        6.4283E-08        0.0000E+00        4.9318E+02        0.0000E+00
        6.4092E-08        0.0000E+00        5.2526E+02        0.0000E+00
        6.3901E-08        0.0000E+00        4.9918E+02        0.0000E+00
        6.3712E-08        0.0000E+00        5.1192E+02        0.0000E+00
        6.3523E-08        0.0000E+00        5.0613E+02        0.0000E+00
        6.3335E-08        0.0000E+00        5.3353E+02        0.0000E+00
        6.3148E-08        0.0000E+00        4.9962E+02        0.0000E+00
        6.2961E-08        0.0000E+00        5.1747E+02        0.0000E+00
        6.2776E-08        0.0000E+00        5.3802E+02        0.0000E+00
        6.2591E-08        0.0000E+00        5.4009E+02        0.0000E+00
        6.2407E-08        0.0000E+00        5.3352E+02        0.0000E+00
        6.2224E-08        0.0000E+00        5.4869E+02        0.0000E+00
        6.2042E-08        0.0000E+00        5.0824E+02        0.0000E+00
        6.1860E-08        0.0000E+00        4.8616E+02        0.0000E+00
        6.1679E-08        0.0000E+00        5.1144E+02        0.0000E+00
        6.1500E-08        0.0000E+00        4.9867E+02        0.0000E+00
        6.1320E-08        0.0000E+00        5.0860E+02        0.0000E+00
        6.1142E-08        0.0000E+00        5.3306E+02        0.0000E+00
        6.0965E-08        0.0000E+00        5.4349E+02        0.0000E+00
        6.0788E-08        0.0000E+00        5.3723E+02        0.0000E+00
        6.0612E-08        0.0000E+00        5.4054E+02        0.0000E+00
        6.0436E-08        0.0000E+00        5.0039E+02        0.0000E+00
        6.0262E-08        0.0000E+00        5.3699E+02        0.0000E+00
        6.0088E-08        0.0000E+00        4.9689E+02        0.0000E+00
        5.9915E-08        0.0000E+00        5.3658E+02        0.0000E+00
        5.9743E-08        0.0000E+00        5.1434E+02        0.0000E+00
        5.9571E-08        0.0000E+00        5.0763E+02        0.0000E+00
        5.9401E-08        0.0000E+00        5.2426E+02        0.0000E+00
        5.9231E-08        0.0000E+00        5.6672E+02        0.0000E+00
        5.9061E-08        0.0000E+00        5.1655E+02        0.0000E+00
        5.8893E-08        0.0000E+00        5.1204E+02        0.0000E+00
        5.8725E-08        0.0000E+00        5.5167E+02        0.0000E+00
        5.8558E-08        0.0000E+00        5.6406E+02        0.0000E+00
        5.8391E-08        0.0000E+00        5.2562E+02        0.0000E+00
        5.8226E-08        0.0000E+00        5.3165E+02        0.0000E+00
        5.8061E-08        0.0000E+00        5.3922E+02        0.0000E+00
        5.7896E-08        0.0000E+00        5.4386E+02        0.0000E+00
        5.7733E-08        0.0000E+00        5.0645E+02        0.0000E+00
        5.7570E-08        0.0000E+00        5.6436E+02        0.0000E+00
        5.7407E-08        0.0000E+00        5.3099E+02        0.0000E+00
        5.7246E-08        0.0000E+00        5.5380E+02        0.0000E+00
        5.7085E-08        0.0000E+00        5.4143E+02        0.0000E+00
        5.6925E-08        0.0000E+00        5.7033E+02        0.0000E+00
        5.6765E-08        0.0000E+00        5.3227E+02        0.0000E+00
        5.6606E-08        0.0000E+00        5.2052E+02        0.0000E+00
        5.6448E-08        0.0000E+00        5.2387E+02        0.0000E+00
        5.6291E-08        0.0000E+00        5.1828E+02        0.0000E+00
        5.6134E-08        0.0000E+00        5.2967E+02        0.0000E+00
        5.5978E-08        0.0000E+00        4.9835E+02        0.0000E+00
        5.5822E-08        0.0000E+00        5.2831E+02        0.0000E+00
        5.5667E-08        0.0000E+00        5.1315E+02        0.0000E+00
        5.5513E-08        0.0000E+00        5.2679E+02        0.0000E+00
        5.5359E-08        0.0000E+00        5.3535E+02        0.0000E+00
        5.5206E-08        0.0000E+00        4.9057E+02        0.0000E+00
        5.5054E-08        0.0000E+00        5.4630E+02        0.0000E+00
        5.4902E-08        0.0000E+00        5.4345E+02        0.0000E+00
        5.4751E-08        0.0000E+00        5.6365E+02        0.0000E+00
        5.4601E-08        0.0000E+00        5.3612E+02        0.0000E+00
        5.4451E-08        0.0000E+00        5.5584E+02        0.0000E+00
        5.4301E-08        0.0000E+00        5.2505E+02        0.0000E+00
        5.4153E-08        0.0000E+00        5.5463E+02        0.0000E+00
        5.4005E-08        0.0000E+00        5.4045E+02        0.0000E+00
        5.3857E-08        0.0000E+00        5.4728E+02        0.0000E+00
        5.3711E-08        0.0000E+00        5.3534E+02        0.0000E+00
        5.3564E-08        0.0000E+00        5.7968E+02        0.0000E+00
        5.3419E-08        0.0000E+00        5.9193E+02        0.0000E+00
        5.3274E-08        0.0000E+00        5.4151E+02        0.0000E+00
        5.3129E-08        0.0000E+00        5.4027E+02        0.0000E+00
        5.2985E-08        0.0000E+00        5.4976E+02        0.0000E+00
        5.2842E-08        0.0000E+00        5.7770E+02        0.0000E+00
        5.2699E-08        0.0000E+00        5.6213E+02        0.0000E+00
        5.2557E-08        0.0000E+00        5.3069E+02        0.0000E+00
        5.2416E-08        0.0000E+00        5.7417E+02        0.0000E+00
        5.2275E-08        0.0000E+00        5.8498E+02        0.0000E+00
        5.2134E-08        0.0000E+00        5.2972E+02        0.0000E+00
        5.1995E-08        0.0000E+00        5.0981E+02        0.0000E+00
        5.1855E-08        0.0000E+00        5.2071E+02        0.0000E+00
        5.1717E-08        0.0000E+00        5.8673E+02        0.0000E+00
        5.1579E-08        0.0000E+00        5.1585E+02        0.0000E+00
        5.1441E-08        0.0000E+00        5.7859E+02        0.0000E+00
        5.1304E-08        0.0000E+00        5.1776E+02        0.0000E+00
        5.1167E-08        0.0000E+00        5.7427E+02        0.0000E+00
        5.1031E-08        0.0000E+00        5.5738E+02        0.0000E+00
        5.0896E-08        0.0000E+00        5.8423E+02        0.0000E+00
        5.0761E-08        0.0000E+00        5.5393E+02        0.0000E+00
        5.0627E-08        0.0000E+00        5.8018E+02        0.0000E+00
        5.0493E-08        0.0000E+00        5.2723E+02        0.0000E+00
        5.0360E-08        0.0000E+00        5.8966E+02        0.0000E+00
        5.0227E-08        0.0000E+00        5.7279E+02        0.0000E+00
        5.0095E-08        0.0000E+00        5.6659E+02        0.0000E+00
        4.9963E-08        0.0000E+00        5.4806E+02        0.0000E+00
        4.9832E-08        0.0000E+00        5.5494E+02        0.0000E+00
        4.9701E-08        0.0000E+00        5.4760E+02        0.0000E+00
        4.9571E-08        0.0000E+00        5.5015E+02        0.0000E+00
        4.9441E-08        0.0000E+00        5.6276E+02        0.0000E+00
        4.9312E-08        0.0000E+00        5.6248E+02        0.0000E+00
        4.9183E-08        0.0000E+00        5.4601E+02        0.0000E+00
        4.9055E-08        0.0000E+00        5.8701E+02        0.0000E+00
        4.8928E-08        0.0000E+00        5.2046E+02        0.0000E+00
        4.8801E-08        0.0000E+00        5.3672E+02        0.0000E+00
        4.8674E-08        0.0000E+00        6.1040E+02        0.0000E+00
        4.8548E-08        0.0000E+00        5.5405E+02        0.0000E+00
        4.8422E-08        0.0000E+00        5.3661E+02        0.0000E+00
        4.8297E-08        0.0000E+00        5.6134E+02        0.0000E+00
        4.8172E-08        0.0000E+00        5.6674E+02        0.0000E+00
        4.8048E-08        0.0000E+00        6.0345E+02        0.0000E+00
        4.7924E-08        0.0000E+00        5.6777E+02        0.0000E+00
        4.7801E-08        0.0000E+00        5.9954E+02        0.0000E+00
        4.7678E-08        0.0000E+00        5.6942E+02        0.0000E+00
        4.7556E-08        0.0000E+00        5.9876E+02        0.0000E+00
        4.7434E-08        0.0000E+00        5.6330E+02        0.0000E+00
        4.7313E-08        0.0000E+00        5.6128E+02        0.0000E+00
        4.7192E-08        0.0000E+00        5.9138E+02        0.0000E+00
        4.7071E-08        0.0000E+00        5.5897E+02        0.0000E+00
        4.6951E-08        0.0000E+00        5.4880E+02        0.0000E+00
        4.6832E-08        0.0000E+00        6.0539E+02        0.0000E+00
        4.6713E-08        0.0000E+00        5.7409E+02        0.0000E+00
        4.6594E-08        0.0000E+00        6.1821E+02        0.0000E+00
        4.6476E-08        0.0000E+00        5.8107E+02        0.0000E+00
        4.6358E-08        0.0000E+00        5.6101E+02        0.0000E+00
        4.6241E-08        0.0000E+00        5.6278E+02        0.0000E+00
        4.6124E-08        0.0000E+00        5.4367E+02        0.0000E+00
        4.6008E-08        0.0000E+00        5.6281E+02        0.0000E+00
        4.5892E-08        0.0000E+00        5.5235E+02        0.0000E+00
        4.5777E-08        0.0000E+00        5.6503E+02        0.0000E+00
        4.5661E-08        0.0000E+00        5.4525E+02        0.0000E+00
        4.5547E-08        0.0000E+00        5.4175E+02        0.0000E+00
        4.5433E-08        0.0000E+00        6.0571E+02        0.0000E+00
        4.5319E-08        0.0000E+00        6.0327E+02        0.0000E+00
        4.5205E-08        0.0000E+00        5.6609E+02        0.0000E+00
        4.5093E-08        0.0000E+00        5.7691E+02        0.0000E+00
        4.4980E-08        0.0000E+00        5.9290E+02        0.0000E+00
        4.4868E-08        0.0000E+00        5.9909E+02        0.0000E+00
        4.4756E-08        0.0000E+00        6.1750E+02        0.0000E+00
        4.4645E-08        0.0000E+00        6.1940E+02        0.0000E+00
        4.4534E-08        0.0000E+00        5.6913E+02        0.0000E+00
        4.4424E-08        0.0000E+00        5.7410E+02        0.0000E+00
        4.4314E-08        0.0000E+00        5.3871E+02        0.0000E+00
        4.4204E-08        0.0000E+00        5.3257E+02        0.0000E+00
        4.4095E-08        0.0000E+00        5.9681E+02        0.0000E+00
        4.3986E-08        0.0000E+00        5.7036E+02        0.0000E+00
        4.3878E-08        0.0000E+00        6.1501E+02        0.0000E+00
        4.3770E-08        0.0000E+00        5.4105E+02        0.0000E+00
        4.3662E-08        0.0000E+00        5.8475E+02        0.0000E+00
        4.3555E-08        0.0000E+00        6.1578E+02        0.0000E+00
        4.3448E-08        0.0000E+00        5.6907E+02        0.0000E+00
        4.3342E-08        0.0000E+00        5.7787E+02        0.0000E+00
        4.3236E-08        0.0000E+00        5.8618E+02        0.0000E+00
        4.3130E-08        0.0000E+00        5.8706E+02        0.0000E+00
        4.3025E-08        0.0000E+00        6.1160E+02        0.0000E+00
        4.2920E-08        0.0000E+00        6.0365E+02        0.0000E+00
        4.2816E-08        0.0000E+00        6.0729E+02        0.0000E+00
        4.2712E-08        0.0000E+00        6.3118E+02        0.0000E+00
        4.2608E-08        0.0000E+00        6.0367E+02        0.0000E+00
        4.2505E-08        0.0000E+00        6.8340E+02        0.0000E+00
        4.2402E-08        0.0000E+00        5.5568E+02        0.0000E+00
        4.2299E-08        0.0000E+00        5.9046E+02        0.0000E+00
        4.2197E-08        0.0000E+00        5.5391E+02        0.0000E+00
        4.2095E-08        0.0000E+00        5.7386E+02        0.0000E+00
        4.1994E-08        0.0000E+00        5.9024E+02        0.0000E+00
        4.1892E-08        0.0000E+00        5.8158E+02        0.0000E+00
        4.1792E-08        0.0000E+00        6.1968E+02        0.0000E+00
        4.1691E-08        0.0000E+00        5.8929E+02        0.0000E+00
        4.1591E-08        0.0000E+00        5.9965E+02        0.0000E+00
        4.1492E-08        0.0000E+00        6.0785E+02        0.0000E+00
        4.1392E-08        0.0000E+00        5.6352E+02        0.0000E+00
        4.1293E-08        0.0000E+00        5.3025E+02        0.0000E+00
        4.1195E-08        0.0000E+00        5.8300E+02        0.0000E+00
        4.1097E-08        0.0000E+00        6.3102E+02        0.0000E+00
        4.0999E-08        0.0000E+00        6.1005E+02        0.0000E+00
        4.0901E-08        0.0000E+00        5.8504E+02        0.0000E+00
        4.0804E-08        0.0000E+00        5.7913E+02        0.0000E+00
        4.0707E-08        0.0000E+00        5.8244E+02        0.0000E+00
        4.0611E-08        0.0000E+00        5.6667E+02        0.0000E+00
        4.0514E-08        0.0000E+00        5.9354E+02        0.0000E+00
        4.0419E-08        0.0000E+00        5.7625E+02        0.0000E+00
        4.0323E-08        0.0000E+00        5.9388E+02        0.0000E+00
        4.0228E-08        0.0000E+00        6.4759E+02        0.0000E+00
        4.0133E-08        0.0000E+00        6.2091E+02        0.0000E+00
        4.0039E-08        0.0000E+00        5.7735E+02        0.0000E+00
        3.9945E-08        0.0000E+00        6.1617E+02        0.0000E+00
        3.9851E-08        0.0000E+00        6.1986E+02        0.0000E+00
        3.9757E-08        0.0000E+00        6.1969E+02        0.0000E+00
        3.9664E-08        0.0000E+00        6.1539E+02        0.0000E+00
        3.9571E-08        0.0000E+00        6.2618E+02        0.0000E+00
        3.9479E-08        0.0000E+00        5.7542E+02        0.0000E+00
        3.9387E-08        0.0000E+00        5.8972E+02        0.0000E+00
        3.9295E-08        0.0000E+00        6.2881E+02        0.0000E+00
        3.9203E-08        0.0000E+00        6.2376E+02        0.0000E+00
        3.9112E-08        0.0000E+00        6.2774E+02        0.0000E+00
        3.9021E-08        0.0000E+00        6.1286E+02        0.0000E+00
        3.8931E-08        0.0000E+00        6.2378E+02        0.0000E+00
        3.8840E-08        0.0000E+00        6.0683E+02        0.0000E+00
        3.8751E-08        0.0000E+00        6.8490E+02        0.0000E+00
        3.8661E-08        0.0000E+00        6.3719E+02        0.0000E+00
        3.8572E-08        0.0000E+00        5.8503E+02        0.0000E+00
        3.8483E-08        0.0000E+00        6.0223E+02        0.0000E+00
        3.8394E-08        0.0000E+00        6.0433E+02        0.0000E+00
        3.8305E-08        0.0000E+00        6.3985E+02        0.0000E+00
        3.8217E-08        0.0000E+00        5.4877E+02        0.0000E+00
        3.8130E-08        0.0000E+00        6.2888E+02        0.0000E+00
        3.8042E-08        0.0000E+00        6.3378E+02        0.0000E+00
        3.7955E-08        0.0000E+00        6.3253E+02        0.0000E+00
        3.7868E-08        0.0000E+00        6.8665E+02        0.0000E+00
        3.7781E-08        0.0000E+00        6.3596E+02        0.0000E+00
        3.7695E-08        0.0000E+00        6.6964E+02        0.0000E+00
        3.7609E-08        0.0000E+00        6.0385E+02        0.0000E+00
        3.7523E-08        0.0000E+00        6.5749E+02        0.0000E+00
        3.7438E-08        0.0000E+00        6.0374E+02        0.0000E+00
        3.7353E-08        0.0000E+00        6.3227E+02        0.0000E+00
        3.7268E-08        0.0000E+00        6.0908E+02        0.0000E+00
        3.7184E-08        0.0000E+00        6.2199E+02        0.0000E+00
        3.7099E-08        0.0000E+00        6.3757E+02        0.0000E+00
        3.7015E-08        0.0000E+00        5.9203E+02        0.0000E+00
        3.6932E-08        0.0000E+00        6.2017E+02        0.0000E+00
        3.6848E-08        0.0000E+00        5.9755E+02        0.0000E+00
        3.6765E-08        0.0000E+00        5.7805E+02        0.0000E+00
        3.6682E-08        0.0000E+00        6.6198E+02        0.0000E+00
        3.6600E-08        0.0000E+00        5.9172E+02        0.0000E+00
        3.6517E-08        0.0000E+00        6.2463E+02        0.0000E+00
        3.6435E-08        0.0000E+00        6.4771E+02        0.0000E+00
        3.6354E-08        0.0000E+00        6.2013E+02        0.0000E+00
        3.6272E-08        0.0000E+00        6.1839E+02        0.0000E+00
        3.6191E-08        0.0000E+00        6.0670E+02        0.0000E+00
        3.6110E-08        0.0000E+00        5.7666E+02        0.0000E+00
        3.6030E-08        0.0000E+00        6.3022E+02        0.0000E+00
        3.5949E-08        0.0000E+00        6.4096E+02        0.0000E+00
        3.5869E-08        0.0000E+00        6.1571E+02        0.0000E+00
        3.5789E-08        0.0000E+00        6.7496E+02        0.0000E+00
        3.5710E-08        0.0000E+00        6.0963E+02        0.0000E+00
        3.5630E-08        0.0000E+00        6.2099E+02        0.0000E+00
        3.5551E-08        0.0000E+00        6.0649E+02        0.0000E+00
        3.5473E-08        0.0000E+00        7.4368E+02        0.0000E+00
        3.5394E-08        0.0000E+00        6.3539E+02        0.0000E+00
        3.5316E-08        0.0000E+00        6.6070E+02        0.0000E+00
        3.5238E-08        0.0000E+00        6.3166E+02        0.0000E+00
        3.5160E-08        0.0000E+00        6.5529E+02        0.0000E+00
        3.5083E-08        0.0000E+00        5.9568E+02        0.0000E+00
        3.5005E-08        0.0000E+00        6.9159E+02        0.0000E+00
        3.4929E-08        0.0000E+00        6.3065E+02        0.0000E+00
        3.4852E-08        0.0000E+00        5.8834E+02        0.0000E+00
        3.4775E-08        0.0000E+00        6.1562E+02        0.0000E+00
        3.4699E-08        0.0000E+00        6.5114E+02        0.0000E+00
        3.4623E-08        0.0000E+00        6.2777E+02        0.0000E+00
        3.4547E-08        0.0000E+00        6.4623E+02        0.0000E+00
        3.4472E-08        0.0000E+00        6.3933E+02        0.0000E+00
        3.4397E-08        0.0000E+00        6.2275E+02        0.0000E+00
        3.4322E-08        0.0000E+00        6.4878E+02        0.0000E+00
        3.4247E-08        0.0000E+00        6.5155E+02        0.0000E+00
        3.4173E-08        0.0000E+00        6.0785E+02        0.0000E+00
        3.4098E-08        0.0000E+00        6.5241E+02        0.0000E+00
        3.4024E-08        0.0000E+00        7.2610E+02        0.0000E+00
        3.3951E-08        0.0000E+00        6.3025E+02        0.0000E+00
        3.3877E-08        0.0000E+00        6.8525E+02        0.0000E+00
        3.3804E-08        0.0000E+00        6.3227E+02        0.0000E+00
        3.3731E-08        0.0000E+00        6.7333E+02        0.0000E+00
        3.3658E-08        0.0000E+00        6.5932E+02        0.0000E+00
        3.3585E-08        0.0000E+00        6.9663E+02        0.0000E+00
        3.3513E-08        0.0000E+00        6.6406E+02        0.0000E+00
        3.3441E-08        0.0000E+00        6.9077E+02        0.0000E+00
        3.3369E-08        0.0000E+00        6.1700E+02        0.0000E+00
        3.3298E-08        0.0000E+00        6.4750E+02        0.0000E+00
        3.3226E-08        0.0000E+00        6.1373E+02        0.0000E+00
        3.3155E-08        0.0000E+00        6.8727E+02        0.0000E+00
        3.3084E-08        0.0000E+00        7.1389E+02        0.0000E+00
        3.3013E-08        0.0000E+00        6.7683E+02        0.0000E+00
        3.2943E-08        0.0000E+00        6.2802E+02        0.0000E+00
        3.2873E-08        0.0000E+00        6.7225E+02        0.0000E+00
        3.2803E-08        0.0000E+00        6.4742E+02        0.0000E+00
        3.2733E-08        0.0000E+00        6.3343E+02        0.0000E+00
        3.2663E-08        0.0000E+00        5.7700E+02        0.0000E+00
        3.2594E-08        0.0000E+00        7.0112E+02        0.0000E+00
        3.2525E-08        0.0000E+00        6.7251E+02        0.0000E+00
        3.2456E-08        0.0000E+00        6.5664E+02        0.0000E+00
        3.2387E-08        0.0000E+00        6.7497E+02        0.0000E+00
        3.2318E-08        0.0000E+00        6.6897E+02        0.0000E+00
        3.2250E-08        0.0000E+00        6.0044E+02        0.0000E+00
        3.2182E-08        0.0000E+00        7.0098E+02        0.0000E+00
        3.2114E-08        0.0000E+00        6.8657E+02        0.0000E+00
        3.2047E-08        0.0000E+00        6.4301E+02        0.0000E+00
        3.1979E-08        0.0000E+00        6.6334E+02        0.0000E+00
        3.1912E-08        0.0000E+00        6.8635E+02        0.0000E+00
        3.1845E-08        0.0000E+00        7.1275E+02        0.0000E+00
        3.1778E-08        0.0000E+00        6.0491E+02        0.0000E+00
        3.1712E-08        0.0000E+00        7.6595E+02        0.0000E+00
        3.1645E-08        0.0000E+00        6.4215E+02        0.0000E+00
        3.1579E-08        0.0000E+00        6.6705E+02        0.0000E+00
        3.1513E-08        0.0000E+00        6.7622E+02        0.0000E+00
        3.1447E-08        0.0000E+00        6.8661E+02        0.0000E+00
        3.1382E-08        0.0000E+00        7.5017E+02        0.0000E+00
        3.1317E-08        0.0000E+00        6.5754E+02        0.0000E+00
        3.1251E-08        0.0000E+00        7.1877E+02        0.0000E+00
        3.1187E-08        0.0000E+00        7.2322E+02        0.0000E+00
        3.1122E-08        0.0000E+00        7.6702E+02        0.0000E+00
        3.1057E-08        0.0000E+00        7.2739E+02        0.0000E+00
        3.0993E-08        0.0000E+00        6.8618E+02        0.0000E+00
        3.0929E-08        0.0000E+00        6.8866E+02        0.0000E+00
        3.0865E-08        0.0000E+00        6.1057E+02        0.0000E+00
        3.0801E-08        0.0000E+00        6.5267E+02        0.0000E+00
        3.0738E-08        0.0000E+00        6.3984E+02        0.0000E+00
        3.0674E-08        0.0000E+00        6.5060E+02        0.0000E+00
        3.0611E-08        0.0000E+00        6.9169E+02        0.0000E+00
        3.0548E-08        0.0000E+00        6.2741E+02        0.0000E+00
        3.0486E-08        0.0000E+00        7.0971E+02        0.0000E+00
        3.0423E-08        0.0000E+00        6.9482E+02        0.0000E+00
        3.0361E-08        0.0000E+00        6.7171E+02        0.0000E+00
        3.0298E-08        0.0000E+00        7.1788E+02        0.0000E+00
        3.0236E-08        0.0000E+00        7.4139E+02        0.0000E+00
        3.0175E-08        0.0000E+00        7.3970E+02        0.0000E+00
        3.0113E-08        0.0000E+00        6.7766E+02        0.0000E+00
        3.0052E-08        0.0000E+00        7.0806E+02        0.0000E+00
        2.9990E-08        0.0000E+00        6.9487E+02        0.0000E+00
        2.9929E-08        0.0000E+00        6.3151E+02        0.0000E+00
        2.9869E-08        0.0000E+00        6.9056E+02        0.0000E+00
        2.9808E-08        0.0000E+00        6.8988E+02        0.0000E+00
        2.9747E-08        0.0000E+00        7.4506E+02        0.0000E+00
        2.9687E-08        0.0000E+00        7.5731E+02        0.0000E+00
        2.9627E-08        0.0000E+00        6.4119E+02        0.0000E+00
        2.9567E-08        0.0000E+00        6.4323E+02        0.0000E+00
        2.9507E-08        0.0000E+00        7.1088E+02        0.0000E+00
        2.9448E-08        0.0000E+00        7.1337E+02        0.0000E+00
        2.9388E-08        0.0000E+00        6.4982E+02        0.0000E+00
        2.9329E-08        0.0000E+00        6.6668E+02        0.0000E+00
        2.9270E-08        0.0000E+00        6.7965E+02        0.0000E+00
        2.9211E-08        0.0000E+00        7.3950E+02        0.0000E+00
        2.9153E-08        0.0000E+00        6.9583E+02        0.0000E+00
        2.9094E-08        0.0000E+00        7.2490E+02        0.0000E+00
        2.9036E-08        0.0000E+00        7.6196E+02        0.0000E+00
        2.8978E-08        0.0000E+00        7.8370E+02        0.0000E+00
        2.8920E-08        0.0000E+00        6.6438E+02        0.0000E+00
        2.8862E-08        0.0000E+00        7.7886E+02        0.0000E+00
        2.8804E-08        0.0000E+00        7.0419E+02        0.0000E+00
        2.8747E-08        0.0000E+00        7.3655E+02        0.0000E+00
        2.8689E-08        0.0000E+00        6.9975E+02        0.0000E+00
        2.8632E-08        0.0000E+00        6.6627E+02        0.0000E+00
        2.8575E-08        0.0000E+00        7.3366E+02        0.0000E+00
        2.8519E-08        0.0000E+00        7.2638E+02        0.0000E+00
        2.8462E-08        0.0000E+00        6.7606E+02        0.0000E+00
        2.8406E-08        0.0000E+00        7.0915E+02        0.0000E+00
        2.8349E-08        0.0000E+00        6.6431E+02        0.0000E+00
        2.8293E-08        0.0000E+00        6.9852E+02        0.0000E+00
        2.8237E-08        0.0000E+00        7.3871E+02        0.0000E+00
        2.8182E-08        0.0000E+00        7.4442E+02        0.0000E+00
        2.8126E-08        0.0000E+00        6.5032E+02        0.0000E+00
        2.8070E-08        0.0000E+00        6.9417E+02        0.0000E+00
        2.8015E-08        0.0000E+00        6.9448E+02        0.0000E+00
        2.7960E-08        0.0000E+00        7.3695E+02        0.0000E+00
        2.7905E-08        0.0000E+00        7.4094E+02        0.0000E+00
        2.7850E-08        0.0000E+00        7.4391E+02        0.0000E+00
        2.7796E-08        0.0000E+00        6.6095E+02        0.0000E+00
        2.7741E-08        0.0000E+00        7.4164E+02        0.0000E+00
        2.7687E-08        0.0000E+00        6.9034E+02        0.0000E+00
        2.7633E-08        0.0000E+00        7.5741E+02        0.0000E+00
        2.7579E-08        0.0000E+00        7.0299E+02        0.0000E+00
        2.7525E-08        0.0000E+00        7.4929E+02        0.0000E+00
        2.7471E-08        0.0000E+00        7.3786E+02        0.0000E+00
        2.7418E-08        0.0000E+00        7.3150E+02        0.0000E+00
        2.7364E-08        0.0000E+00        6.8441E+02        0.0000E+00
        2.7311E-08        0.0000E+00        6.9623E+02        0.0000E+00
        2.7258E-08        0.0000E+00        6.7702E+02        0.0000E+00
        2.7205E-08        0.0000E+00        7.7296E+02        0.0000E+00
        2.7153E-08        0.0000E+00        6.8018E+02        0.0000E+00
        2.7100E-08        0.0000E+00        7.4502E+02        0.0000E+00
        2.7048E-08        0.0000E+00        6.5870E+02        0.0000E+00
        2.6995E-08        0.0000E+00        6.9375E+02        0.0000E+00
        2.6943E-08        0.0000E+00        6.9609E+02        0.0000E+00
        2.6891E-08        0.0000E+00        7.2708E+02        0.0000E+00
        2.6839E-08        0.0000E+00        6.5964E+02        0.0000E+00
        2.6788E-08        0.0000E+00        7.0251E+02        0.0000E+00
        2.6736E-08        0.0000E+00        7.6613E+02        0.0000E+00
        2.6685E-08        0.0000E+00        6.7761E+02        0.0000E+00
        2.6633E-08        0.0000E+00        7.5089E+02        0.0000E+00
        2.6582E-08        0.0000E+00        7.5225E+02        0.0000E+00
        2.6531E-08        0.0000E+00        7.3257E+02        0.0000E+00
        2.6481E-08        0.0000E+00        7.7803E+02        0.0000E+00
        2.6430E-08        0.0000E+00        7.1287E+02        0.0000E+00
        2.6380E-08        0.0000E+00        7.2897E+02        0.0000E+00
        2.6329E-08        0.0000E+00        6.7783E+02        0.0000E+00
        2.6279E-08        0.0000E+00        7.5702E+02        0.0000E+00
        2.6229E-08        0.0000E+00        7.1085E+02        0.0000E+00
        2.6179E-08        0.0000E+00        6.4421E+02        0.0000E+00
        2.6129E-08        0.0000E+00        7.7205E+02        0.0000E+00
        2.6080E-08        0.0000E+00        7.6040E+02        0.0000E+00
        2.6030E-08        0.0000E+00        7.3150E+02        0.0000E+00
        2.5981E-08        0.0000E+00        7.2462E+02        0.0000E+00
        2.5931E-08        0.0000E+00        8.1257E+02        0.0000E+00
        2.5882E-08        0.0000E+00        7.2347E+02        0.0000E+00
        2.5833E-08        0.0000E+00        7.3171E+02        0.0000E+00
        2.5785E-08        0.0000E+00        7.4738E+02        0.0000E+00
        2.5736E-08        0.0000E+00        7.9845E+02        0.0000E+00
        2.5687E-08        0.0000E+00        7.3009E+02        0.0000E+00
        2.5639E-08        0.0000E+00        7.5083E+02        0.0000E+00
        2.5591E-08        0.0000E+00        7.3996E+02        0.0000E+00
        2.5543E-08        0.0000E+00        7.5526E+02        0.0000E+00
        2.5495E-08        0.0000E+00        7.2519E+02        0.0000E+00
        2.5447E-08        0.0000E+00        7.1107E+02        0.0000E+00
        2.5399E-08        0.0000E+00        7.5648E+02        0.0000E+00
        2.5352E-08        0.0000E+00        7.5054E+02        0.0000E+00
        2.5304E-08        0.0000E+00        7.7694E+02        0.0000E+00
        2.5257E-08        0.0000E+00        7.8399E+02        0.0000E+00
        2.5210E-08        0.0000E+00        7.6722E+02        0.0000E+00
        2.5163E-08        0.0000E+00        7.7522E+02        0.0000E+00
        2.5116E-08        0.0000E+00        6.7131E+02        0.0000E+00
        2.5069E-08        0.0000E+00        7.3419E+02        0.0000E+00
        2.5022E-08        0.0000E+00        7.7080E+02        0.0000E+00
        2.4976E-08        0.0000E+00        6.8900E+02        0.0000E+00
        2.4929E-08        0.0000E+00        7.1292E+02        0.0000E+00
        2.4883E-08        0.0000E+00        7.3235E+02        0.0000E+00
        2.4837E-08        0.0000E+00        8.8375E+02        0.0000E+00
        2.4791E-08        0.0000E+00        7.9397E+02        0.0000E+00
        2.4745E-08        0.0000E+00        7.0608E+02        0.0000E+00
        2.4699E-08        0.0000E+00        6.7663E+02        0.0000E+00
        2.4654E-08        0.0000E+00        7.0976E+02        0.0000E+00
        2.4608E-08        0.0000E+00        6.6236E+02        0.0000E+00
        2.4563E-08        0.0000E+00        8.0095E+02        0.0000E+00
        2.4517E-08        0.0000E+00        7.9623E+02        0.0000E+00
        2.4472E-08        0.0000E+00        7.3553E+02        0.0000E+00
        2.4427E-08        0.0000E+00        7.1853E+02        0.0000E+00
        2.4382E-08        0.0000E+00        7.1325E+02        0.0000E+00
        2.4338E-08        0.0000E+00        8.0014E+02        0.0000E+00
        2.4293E-08        0.0000E+00        7.1636E+02        0.0000E+00
        2.4249E-08        0.0000E+00        8.0356E+02        0.0000E+00
        2.4204E-08        0.0000E+00        8.7104E+02        0.0000E+00
        2.4160E-08        0.0000E+00        7.4575E+02        0.0000E+00
        2.4116E-08        0.0000E+00        6.6265E+02        0.0000E+00
        2.4072E-08        0.0000E+00        7.8782E+02        0.0000E+00
        2.4028E-08        0.0000E+00        8.0924E+02        0.0000E+00
        2.3984E-08        0.0000E+00        7.6629E+02        0.0000E+00
        2.3940E-08        0.0000E+00        6.8075E+02        0.0000E+00
        2.3897E-08        0.0000E+00        8.2806E+02        0.0000E+00
        2.3853E-08        0.0000E+00        7.7717E+02        0.0000E+00
        2.3810E-08        0.0000E+00        7.0776E+02        0.0000E+00
        2.3767E-08        0.0000E+00        8.0594E+02        0.0000E+00
        2.3724E-08        0.0000E+00        6.7358E+02        0.0000E+00
        2.3681E-08        0.0000E+00        7.3744E+02        0.0000E+00
        2.3638E-08        0.0000E+00        7.7625E+02        0.0000E+00
        2.3595E-08        0.0000E+00        7.0136E+02        0.0000E+00
        2.3553E-08        0.0000E+00        7.2595E+02        0.0000E+00
        2.3510E-08        0.0000E+00        8.6649E+02        0.0000E+00
        2.3468E-08        0.0000E+00        7.6066E+02        0.0000E+00
        2.3426E-08        0.0000E+00        7.9257E+02        0.0000E+00
        2.3384E-08        0.0000E+00        6.8540E+02        0.0000E+00
        2.3342E-08        0.0000E+00        7.8889E+02        0.0000E+00
        2.3300E-08        0.0000E+00        7.3245E+02        0.0000E+00
        2.3258E-08        0.0000E+00        7.5941E+02        0.0000E+00
        2.3216E-08        0.0000E+00        7.9332E+02        0.0000E+00
        2.3175E-08        0.0000E+00        7.8678E+02        0.0000E+00
        2.3133E-08        0.0000E+00        7.0558E+02        0.0000E+00
        2.3092E-08        0.0000E+00        7.6427E+02        0.0000E+00
        2.3050E-08        0.0000E+00        7.4386E+02        0.0000E+00
        2.3009E-08        0.0000E+00        6.9081E+02        0.0000E+00
        2.2968E-08        0.0000E+00        6.9396E+02        0.0000E+00
        2.2927E-08        0.0000E+00        6.9338E+02        0.0000E+00
        2.2887E-08        0.0000E+00        7.3203E+02        0.0000E+00
        2.2846E-08        0.0000E+00        7.9242E+02        0.0000E+00
        2.2805E-08        0.0000E+00        8.1036E+02        0.0000E+00
        2.2765E-08        0.0000E+00        8.5660E+02        0.0000E+00
        2.2724E-08        0.0000E+00        7.5052E+02        0.0000E+00
        2.2684E-08        0.0000E+00        7.9965E+02        0.0000E+00
        2.2644E-08        0.0000E+00        8.6500E+02        0.0000E+00
        2.2604E-08        0.0000E+00        8.1175E+02        0.0000E+00
        2.2564E-08        0.0000E+00        7.3038E+02        0.0000E+00
        2.2524E-08        0.0000E+00        7.9424E+02        0.0000E+00
        2.2484E-08        0.0000E+00        6.2323E+02        0.0000E+00
        2.2445E-08        0.0000E+00        6.8166E+02        0.0000E+00
        2.2405E-08        0.0000E+00        8.2216E+02        0.0000E+00
        2.2366E-08        0.0000E+00        7.8765E+02        0.0000E+00
        2.2327E-08        0.0000E+00        7.3797E+02        0.0000E+00
        2.2287E-08        0.0000E+00        7.5204E+02        0.0000E+00
        2.2248E-08        0.0000E+00        7.9267E+02        0.0000E+00
        2.2209E-08        0.0000E+00        7.2588E+02        0.0000E+00
