# entry-subent-pointer  : 10225-007-0 
# EXFOR reaction        : (82-PB-0(N,TOT),,SIG) 
# incident energy       : 1.0010e+00 MeV - 8.0960e+00 MeV 
# target                : Pb-0 
# product               : - 
# level energy          : - 
# MF-MT number          : 3 - 1 
# first author          : Green 
# institute             : (1USABET): Bettis Atomic Power Laboratory , Westinghouse, Pittsburgh,PA 
# reference             : (R,WAPD-TM-1073,197304) 
# year                  : 1973 
# facility              : None 
# git                   : https://github.com/IAEA-NDS/exfor_master/blob/main/exforall/102/10225.x4 
# nds                   : https://nds.iaea.org/EXFOR/10225
#
#       E_in(MeV)         dE_in(MeV)        XS(B)             dXS(B)
        1.0010E+00        0.0000E+00        4.8210E+00        0.0000E+00
        1.0070E+00        0.0000E+00        4.7760E+00        0.0000E+00
        1.0130E+00        0.0000E+00        4.7690E+00        0.0000E+00
        1.0190E+00        0.0000E+00        4.7180E+00        0.0000E+00
        1.0250E+00        0.0000E+00        5.0000E+00        0.0000E+00
        1.0310E+00        0.0000E+00        4.8860E+00        0.0000E+00
        1.0380E+00        0.0000E+00        4.8330E+00        0.0000E+00
        1.0440E+00        0.0000E+00        4.8900E+00        0.0000E+00
        1.0500E+00        0.0000E+00        4.8470E+00        0.0000E+00
        1.0570E+00        0.0000E+00        4.6090E+00        0.0000E+00
        1.0630E+00        0.0000E+00        4.5680E+00        0.0000E+00
        1.0700E+00        0.0000E+00        4.6380E+00        0.0000E+00
        1.0770E+00        0.0000E+00        4.5940E+00        0.0000E+00
        1.0830E+00        0.0000E+00        4.7520E+00        0.0000E+00
        1.0900E+00        0.0000E+00        4.8520E+00        0.0000E+00
        1.0970E+00        0.0000E+00        4.9460E+00        0.0000E+00
        1.1040E+00        0.0000E+00        5.3710E+00        0.0000E+00
        1.1110E+00        0.0000E+00        4.9520E+00        0.0000E+00
        1.1180E+00        0.0000E+00        5.4370E+00        0.0000E+00
        1.1250E+00        0.0000E+00        5.1850E+00        0.0000E+00
        1.1320E+00        0.0000E+00        4.8970E+00        0.0000E+00
        1.1390E+00        0.0000E+00        5.1590E+00        0.0000E+00
        1.1460E+00        0.0000E+00        5.3390E+00        0.0000E+00
        1.1540E+00        0.0000E+00        5.0060E+00        0.0000E+00
        1.1610E+00        0.0000E+00        5.2150E+00        0.0000E+00
        1.1690E+00        0.0000E+00        4.9150E+00        0.0000E+00
        1.1760E+00        0.0000E+00        4.7660E+00        0.0000E+00
        1.1840E+00        0.0000E+00        5.0130E+00        0.0000E+00
        1.1920E+00        0.0000E+00        5.1280E+00        0.0000E+00
        1.1990E+00        0.0000E+00        4.8360E+00        0.0000E+00
        1.2070E+00        0.0000E+00        4.9670E+00        0.0000E+00
        1.2150E+00        0.0000E+00        4.7950E+00        0.0000E+00
        1.2230E+00        0.0000E+00        5.0610E+00        0.0000E+00
        1.2310E+00        0.0000E+00        5.5950E+00        0.0000E+00
        1.2400E+00        0.0000E+00        5.3390E+00        0.0000E+00
        1.2480E+00        0.0000E+00        5.3770E+00        0.0000E+00
        1.2560E+00        0.0000E+00        5.1600E+00        0.0000E+00
        1.2650E+00        0.0000E+00        5.2940E+00        0.0000E+00
        1.2730E+00        0.0000E+00        5.2490E+00        0.0000E+00
        1.2820E+00        0.0000E+00        5.1580E+00        0.0000E+00
        1.2910E+00        0.0000E+00        5.2000E+00        0.0000E+00
        1.2990E+00        0.0000E+00        4.9170E+00        0.0000E+00
        1.3080E+00        0.0000E+00        4.8170E+00        0.0000E+00
        1.3170E+00        0.0000E+00        4.9150E+00        0.0000E+00
        1.3260E+00        0.0000E+00        4.9160E+00        0.0000E+00
        1.3350E+00        0.0000E+00        5.1360E+00        0.0000E+00
        1.3450E+00        0.0000E+00        4.9150E+00        0.0000E+00
        1.3540E+00        0.0000E+00        5.1030E+00        0.0000E+00
        1.3630E+00        0.0000E+00        5.2280E+00        0.0000E+00
        1.3730E+00        0.0000E+00        5.2690E+00        0.0000E+00
        1.3830E+00        0.0000E+00        5.4760E+00        0.0000E+00
        1.3920E+00        0.0000E+00        5.2990E+00        0.0000E+00
        1.4020E+00        0.0000E+00        5.2080E+00        0.0000E+00
        1.4120E+00        0.0000E+00        5.2720E+00        0.0000E+00
        1.4220E+00        0.0000E+00        5.3040E+00        0.0000E+00
        1.4320E+00        0.0000E+00        5.1910E+00        0.0000E+00
        1.4430E+00        0.0000E+00        5.2820E+00        0.0000E+00
        1.4530E+00        0.0000E+00        5.3820E+00        0.0000E+00
        1.4640E+00        0.0000E+00        5.4070E+00        0.0000E+00
        1.4740E+00        0.0000E+00        5.3720E+00        0.0000E+00
        1.4850E+00        0.0000E+00        5.1250E+00        0.0000E+00
        1.4960E+00        0.0000E+00        5.2270E+00        0.0000E+00
        1.5070E+00        0.0000E+00        4.8890E+00        0.0000E+00
        1.5180E+00        0.0000E+00        5.0720E+00        0.0000E+00
        1.5290E+00        0.0000E+00        5.0150E+00        0.0000E+00
        1.5400E+00        0.0000E+00        5.0080E+00        0.0000E+00
        1.5520E+00        0.0000E+00        4.9840E+00        0.0000E+00
        1.5640E+00        0.0000E+00        4.9220E+00        0.0000E+00
        1.5750E+00        0.0000E+00        5.1060E+00        0.0000E+00
        1.5870E+00        0.0000E+00        5.1040E+00        0.0000E+00
        1.5990E+00        0.0000E+00        5.0580E+00        0.0000E+00
        1.6110E+00        0.0000E+00        5.2800E+00        0.0000E+00
        1.6240E+00        0.0000E+00        5.2110E+00        0.0000E+00
        1.6360E+00        0.0000E+00        5.3940E+00        0.0000E+00
        1.6490E+00        0.0000E+00        5.5250E+00        0.0000E+00
        1.6610E+00        0.0000E+00        5.6700E+00        0.0000E+00
        1.6740E+00        0.0000E+00        5.9530E+00        0.0000E+00
        1.6870E+00        0.0000E+00        6.3760E+00        0.0000E+00
        1.7000E+00        0.0000E+00        6.3540E+00        0.0000E+00
        1.7140E+00        0.0000E+00        6.3910E+00        0.0000E+00
        1.7270E+00        0.0000E+00        6.2600E+00        0.0000E+00
        1.7410E+00        0.0000E+00        6.1420E+00        0.0000E+00
        1.7540E+00        0.0000E+00        6.0580E+00        0.0000E+00
        1.7680E+00        0.0000E+00        5.7690E+00        0.0000E+00
        1.7830E+00        0.0000E+00        5.7200E+00        0.0000E+00
        1.7970E+00        0.0000E+00        5.5960E+00        0.0000E+00
        1.8110E+00        0.0000E+00        5.4490E+00        0.0000E+00
        1.8260E+00        0.0000E+00        5.4230E+00        0.0000E+00
        1.8410E+00        0.0000E+00        5.3340E+00        0.0000E+00
        1.8560E+00        0.0000E+00        5.4720E+00        0.0000E+00
        1.8710E+00        0.0000E+00        5.5130E+00        0.0000E+00
        1.8860E+00        0.0000E+00        5.6660E+00        0.0000E+00
        1.9020E+00        0.0000E+00        5.5730E+00        0.0000E+00
        1.9180E+00        0.0000E+00        5.7670E+00        0.0000E+00
        1.9340E+00        0.0000E+00        5.7020E+00        0.0000E+00
        1.9500E+00        0.0000E+00        5.8700E+00        0.0000E+00
        1.9660E+00        0.0000E+00        5.7270E+00        0.0000E+00
        1.9830E+00        0.0000E+00        6.0000E+00        0.0000E+00
        1.9990E+00        0.0000E+00        6.0100E+00        0.0000E+00
        2.0160E+00        0.0000E+00        6.0340E+00        0.0000E+00
        2.0340E+00        0.0000E+00        6.2870E+00        0.0000E+00
        2.0510E+00        0.0000E+00        6.3530E+00        0.0000E+00
        2.0690E+00        0.0000E+00        6.4550E+00        0.0000E+00
        2.0870E+00        0.0000E+00        6.4420E+00        0.0000E+00
        2.1050E+00        0.0000E+00        6.4020E+00        0.0000E+00
        2.1230E+00        0.0000E+00        6.2540E+00        0.0000E+00
        2.1420E+00        0.0000E+00        6.4980E+00        0.0000E+00
        2.1600E+00        0.0000E+00        6.3810E+00        0.0000E+00
        2.1800E+00        0.0000E+00        6.2970E+00        0.0000E+00
        2.1990E+00        0.0000E+00        6.3430E+00        0.0000E+00
        2.2180E+00        0.0000E+00        6.5250E+00        0.0000E+00
        2.2380E+00        0.0000E+00        6.5190E+00        0.0000E+00
        2.2580E+00        0.0000E+00        6.7590E+00        0.0000E+00
        2.2790E+00        0.0000E+00        6.8130E+00        0.0000E+00
        2.3000E+00        0.0000E+00        6.9460E+00        0.0000E+00
        2.3200E+00        0.0000E+00        7.2390E+00        0.0000E+00
        2.3420E+00        0.0000E+00        7.3700E+00        0.0000E+00
        2.3630E+00        0.0000E+00        7.1090E+00        0.0000E+00
        2.3850E+00        0.0000E+00        7.0590E+00        0.0000E+00
        2.4070E+00        0.0000E+00        7.1410E+00        0.0000E+00
        2.4300E+00        0.0000E+00        7.2490E+00        0.0000E+00
        2.4530E+00        0.0000E+00        6.8500E+00        0.0000E+00
        2.4760E+00        0.0000E+00        7.1210E+00        0.0000E+00
        2.4990E+00        0.0000E+00        6.9970E+00        0.0000E+00
        2.5230E+00        0.0000E+00        7.1090E+00        0.0000E+00
        2.5470E+00        0.0000E+00        7.1740E+00        0.0000E+00
        2.5710E+00        0.0000E+00        7.2700E+00        0.0000E+00
        2.5960E+00        0.0000E+00        7.2170E+00        0.0000E+00
        2.6210E+00        0.0000E+00        7.4290E+00        0.0000E+00
        2.6470E+00        0.0000E+00        7.4370E+00        0.0000E+00
        2.6730E+00        0.0000E+00        7.3900E+00        0.0000E+00
        2.6990E+00        0.0000E+00        7.4000E+00        0.0000E+00
        2.7260E+00        0.0000E+00        7.4460E+00        0.0000E+00
        2.7530E+00        0.0000E+00        7.3780E+00        0.0000E+00
        2.7800E+00        0.0000E+00        7.3730E+00        0.0000E+00
        2.8080E+00        0.0000E+00        7.5950E+00        0.0000E+00
        2.8370E+00        0.0000E+00        7.3880E+00        0.0000E+00
        2.8650E+00        0.0000E+00        7.3850E+00        0.0000E+00
        2.8940E+00        0.0000E+00        7.6090E+00        0.0000E+00
        2.9240E+00        0.0000E+00        7.5170E+00        0.0000E+00
        2.9540E+00        0.0000E+00        7.6090E+00        0.0000E+00
        2.9850E+00        0.0000E+00        7.9070E+00        0.0000E+00
        3.0160E+00        0.0000E+00        7.7790E+00        0.0000E+00
        3.0470E+00        0.0000E+00        7.8430E+00        0.0000E+00
        3.0790E+00        0.0000E+00        7.5690E+00        0.0000E+00
        3.1120E+00        0.0000E+00        7.5600E+00        0.0000E+00
        3.1450E+00        0.0000E+00        7.5330E+00        0.0000E+00
        3.1790E+00        0.0000E+00        7.8240E+00        0.0000E+00
        3.2130E+00        0.0000E+00        7.9720E+00        0.0000E+00
        3.2470E+00        0.0000E+00        7.7450E+00        0.0000E+00
        3.2830E+00        0.0000E+00        7.7280E+00        0.0000E+00
        3.3190E+00        0.0000E+00        8.0550E+00        0.0000E+00
        3.3550E+00        0.0000E+00        8.1000E+00        0.0000E+00
        3.3920E+00        0.0000E+00        7.9590E+00        0.0000E+00
        3.4300E+00        0.0000E+00        7.6610E+00        0.0000E+00
        3.4680E+00        0.0000E+00        7.6080E+00        0.0000E+00
        3.5070E+00        0.0000E+00        7.6960E+00        0.0000E+00
        3.5460E+00        0.0000E+00        7.6090E+00        0.0000E+00
        3.5870E+00        0.0000E+00        7.5160E+00        0.0000E+00
        3.6280E+00        0.0000E+00        7.6750E+00        0.0000E+00
        3.6690E+00        0.0000E+00        7.6350E+00        0.0000E+00
        3.7120E+00        0.0000E+00        7.4290E+00        0.0000E+00
        3.7550E+00        0.0000E+00        7.5600E+00        0.0000E+00
        3.7990E+00        0.0000E+00        7.5680E+00        0.0000E+00
        3.8430E+00        0.0000E+00        7.6360E+00        0.0000E+00
        3.8890E+00        0.0000E+00        7.6480E+00        0.0000E+00
        3.9350E+00        0.0000E+00        7.6170E+00        0.0000E+00
        3.9820E+00        0.0000E+00        7.5700E+00        0.0000E+00
        4.0300E+00        0.0000E+00        7.8450E+00        0.0000E+00
        4.0790E+00        0.0000E+00        7.6320E+00        0.0000E+00
        4.1290E+00        0.0000E+00        7.8370E+00        0.0000E+00
        4.1790E+00        0.0000E+00        7.5390E+00        0.0000E+00
        4.2310E+00        0.0000E+00        7.4850E+00        0.0000E+00
        4.2830E+00        0.0000E+00        7.6690E+00        0.0000E+00
        4.3370E+00        0.0000E+00        7.5110E+00        0.0000E+00
        4.3910E+00        0.0000E+00        7.7750E+00        0.0000E+00
        4.4470E+00        0.0000E+00        7.3360E+00        0.0000E+00
        4.5040E+00        0.0000E+00        7.5010E+00        0.0000E+00
        4.5610E+00        0.0000E+00        7.5210E+00        0.0000E+00
        4.6200E+00        0.0000E+00        7.1420E+00        0.0000E+00
        4.6800E+00        0.0000E+00        7.4840E+00        0.0000E+00
        4.7410E+00        0.0000E+00        7.3830E+00        0.0000E+00
        4.8040E+00        0.0000E+00        7.6460E+00        0.0000E+00
        4.8670E+00        0.0000E+00        7.6000E+00        0.0000E+00
        4.9320E+00        0.0000E+00        7.2540E+00        0.0000E+00
        4.9980E+00        0.0000E+00        7.2840E+00        0.0000E+00
        5.0660E+00        0.0000E+00        7.1590E+00        0.0000E+00
        5.1350E+00        0.0000E+00        6.8580E+00        0.0000E+00
        5.2050E+00        0.0000E+00        7.1370E+00        0.0000E+00
        5.2770E+00        0.0000E+00        7.0710E+00        0.0000E+00
        5.3500E+00        0.0000E+00        7.1600E+00        0.0000E+00
        5.4250E+00        0.0000E+00        6.9050E+00        0.0000E+00
        5.5020E+00        0.0000E+00        6.9250E+00        0.0000E+00
        5.5800E+00        0.0000E+00        6.6380E+00        0.0000E+00
        5.6590E+00        0.0000E+00        6.9240E+00        0.0000E+00
        5.7410E+00        0.0000E+00        6.8360E+00        0.0000E+00
        5.8240E+00        0.0000E+00        6.6610E+00        0.0000E+00
        5.9090E+00        0.0000E+00        6.6640E+00        0.0000E+00
        5.9960E+00        0.0000E+00        6.3250E+00        0.0000E+00
        6.0850E+00        0.0000E+00        6.0930E+00        0.0000E+00
        6.1760E+00        0.0000E+00        6.0550E+00        0.0000E+00
        6.2690E+00        0.0000E+00        5.8900E+00        0.0000E+00
        6.3640E+00        0.0000E+00        5.9980E+00        0.0000E+00
        6.4610E+00        0.0000E+00        5.8720E+00        0.0000E+00
        6.5610E+00        0.0000E+00        5.5020E+00        0.0000E+00
        6.6630E+00        0.0000E+00        6.0390E+00        0.0000E+00
        6.7670E+00        0.0000E+00        5.9690E+00        0.0000E+00
        6.8740E+00        0.0000E+00        5.2290E+00        0.0000E+00
        6.9830E+00        0.0000E+00        5.4450E+00        0.0000E+00
        7.0950E+00        0.0000E+00        5.1850E+00        0.0000E+00
        7.2100E+00        0.0000E+00        5.1640E+00        0.0000E+00
        7.3270E+00        0.0000E+00        5.1080E+00        0.0000E+00
        7.4470E+00        0.0000E+00        4.6380E+00        0.0000E+00
        7.5710E+00        0.0000E+00        4.9380E+00        0.0000E+00
        7.6970E+00        0.0000E+00        4.9770E+00        0.0000E+00
        7.8270E+00        0.0000E+00        4.6740E+00        0.0000E+00
        7.9600E+00        0.0000E+00        5.6100E+00        0.0000E+00
        8.0960E+00        0.0000E+00        4.7610E+00        0.0000E+00
