# entry-subent-pointer  : 21771-011-0 
# EXFOR reaction        : ['92-U-232', ['N,F'], 'MASS,CHN,FY,,MXW'] 
# incident energy       : 8.0000e-09 MeV 
# target                : U-232 
# product               : 116.0 <= A <= 164.0 
# level energy          : - 
# MF-MT number          : 8 - 459 
# first author          : M.Asghar 
# institute             : (2FR ILL): Institut Laue-Langevin, Grenoble 
# reference             : (J,NP/A,368,(2),328,198109) 
# year                  : 1981 
# facility              : (REAC): Reactor 
# git                   : https://github.com/IAEA-NDS/exfor_master/blob/main/exforall/217/21771.x4 
# nds                   : https://nds.iaea.org/EXFOR/21771
#
# Charge(No Dim.)    Mass(No Dim.)  Isomer(No Dim.)    Yield(%/fiss)   dYield(%/fiss)
                             116.0                       6.06550E-05      0.00000E+00
                             117.0                       3.90090E-05      0.00000E+00
                             118.0                       1.38900E-04      0.00000E+00
                             119.0                       2.37710E-04      0.00000E+00
                             120.0                       3.38680E-04      0.00000E+00
                             121.0                       5.62280E-04      0.00000E+00
                             122.0                       9.08490E-04      0.00000E+00
                             123.0                       1.37730E-03      0.00000E+00
                             124.0                       2.33560E-03      0.00000E+00
                             125.0                       4.03060E-03      0.00000E+00
                             126.0                       6.46130E-03      0.00000E+00
                             127.0                       1.04850E-02      0.00000E+00
                             128.0                       1.43880E-02      0.00000E+00
                             129.0                       1.93960E-02      0.00000E+00
                             130.0                       2.72200E-02      0.00000E+00
                             131.0                       3.65190E-02      0.00000E+00
                             132.0                       4.48330E-02      0.00000E+00
                             133.0                       4.87350E-02      0.00000E+00
                             134.0                       5.16570E-02      0.00000E+00
                             135.0                       5.54360E-02      0.00000E+00
                             136.0                       6.11770E-02      0.00000E+00
                             137.0                       6.67960E-02      0.00000E+00
                             138.0                       6.89820E-02      0.00000E+00
                             139.0                       6.83460E-02      0.00000E+00
                             140.0                       6.73410E-02      0.00000E+00
                             141.0                       6.65870E-02      0.00000E+00
                             142.0                       6.50900E-02      0.00000E+00
                             143.0                       5.62380E-02      0.00000E+00
                             144.0                       3.92840E-02      0.00000E+00
                             145.0                       3.32630E-02      0.00000E+00
                             146.0                       2.52690E-02      0.00000E+00
                             147.0                       1.98520E-02      0.00000E+00
                             148.0                       1.50470E-02      0.00000E+00
                             149.0                       1.12240E-02      0.00000E+00
                             150.0                       7.76810E-03      0.00000E+00
                             151.0                       5.16820E-03      0.00000E+00
                             152.0                       3.42990E-03      0.00000E+00
                             153.0                       2.54990E-03      0.00000E+00
                             154.0                       1.66990E-03      0.00000E+00
                             155.0                       1.27830E-03      0.00000E+00
                             156.0                       8.87670E-04      0.00000E+00
                             157.0                       6.20780E-04      0.00000E+00
                             158.0                       5.98060E-04      0.00000E+00
                             159.0                       5.75330E-04      0.00000E+00
                             160.0                       5.51520E-04      0.00000E+00
                             161.0                       5.28790E-04      0.00000E+00
                             162.0                       5.07140E-04      0.00000E+00
                             163.0                       4.84410E-04      0.00000E+00
                             164.0                       4.61680E-04      0.00000E+00
