# entry-subent-pointer  : G0506-003-0 
# EXFOR reaction        : ['92-U-238', ['G,F'], 'MASS,CHN,FY,,BRA'] 
# incident energy       : 1.3390e+01 MeV 
# target                : U-238 
# product               : 84.0 <= A <= 153.0 
# level energy          : - 
# MF-MT number          : 8 - 459 
# first author          : H.Naik 
# institute             : (3INDTRM): Bhabha Atomic Research Centre (BARC), Trombay, Mumbai 
# reference             : (J,EPJ/A,49,94,2013) 
# year                  : 2013 
# facility              : (LINAC): Linear accelerator 
# git                   : https://github.com/IAEA-NDS/exfor_master/blob/main/exforall/G05/G0506.x4 
# nds                   : https://nds.iaea.org/EXFOR/G0506
#
# Charge(No Dim.)    Mass(No Dim.)  Isomer(No Dim.)    Yield(%/fiss)   dYield(%/fiss)
                              84.0                       7.93000E-03      5.10000E-04
                              84.0                       8.60000E-03      3.90000E-04
                              85.0              1.0      9.89000E-03      6.20000E-04
                              85.0              1.0      9.77000E-03      5.10000E-04
                              87.0                       1.69200E-02      1.01000E-03
                              88.0                       2.41100E-02      2.14000E-03
                              89.0                       2.92800E-02      1.80000E-03
                              89.0                       3.11900E-02      2.02000E-03
                              91.0                       3.74900E-02      2.36000E-03
                              91.0                       3.66500E-02      1.46000E-03
                              92.0                       4.39500E-02      2.52000E-03
                              93.0                       3.86100E-02      1.29000E-03
                              94.0                       4.01600E-02      1.46000E-03
                              95.0                       4.81300E-02      2.75000E-03
                              95.0                       4.95400E-02      1.97000E-03
                              97.0                       5.83400E-02      2.59000E-03
                              99.0                       5.64800E-02      1.74000E-03
                              99.0                       5.74400E-02      2.59000E-03
                             101.0                       7.95900E-02      3.21000E-03
                             103.0                       5.40700E-02      2.71000E-03
                             104.0                       3.71000E-02      2.59000E-03
                             105.0                       2.69800E-02      1.80000E-03
                             107.0                       1.14700E-02      1.52000E-03
                             112.0                       1.88000E-03      4.50000E-04
                             113.0                       1.79000E-03      5.10000E-04
                             115.0              0.0      1.41000E-03      2.80000E-04
                             115.0                       1.65000E-03      2.80000E-04
                             117.0                       1.54000E-03      2.31000E-04
                             127.0                       3.31000E-03      2.20000E-04
                             128.0                       6.80000E-03      7.30000E-04
                             129.0                       1.33800E-02      7.90000E-04
                             131.0                       3.87800E-02      1.12000E-03
                             132.0                       5.36200E-02      1.24000E-03
                             133.0                       7.44200E-02      2.72000E-03
                             134.0                       8.29600E-02      3.17000E-03
                             134.0                       8.47600E-02      2.72000E-03
                             134.0                       8.43700E-02      3.72000E-03
                             134.0                       8.30300E-02      3.11000E-03
                             135.0                       5.71600E-02      7.30000E-04
                             135.0                       5.62100E-02      5.60000E-04
                             137.0                       6.52500E-02      1.79000E-03
                             138.0              0.0      7.10200E-02      2.82000E-03
                             138.0              0.0      6.77600E-02      2.59000E-03
                             138.0              0.0      6.86600E-02      1.97000E-03
                             139.0                       5.94100E-02      2.59000E-03
                             140.0                       4.82800E-02      2.36000E-03
                             141.0                       4.26600E-02      2.59000E-03
                             142.0                       4.90700E-02      2.87000E-03
                             143.0                       4.94000E-02      1.46000E-03
                             144.0                       4.75900E-02      1.08000E-03
                             146.0                       3.38900E-02      2.36000E-03
                             146.0                       3.59200E-02      1.07000E-03
                             147.0                       2.36100E-02      1.85000E-03
                             149.0                       1.34900E-02      8.40000E-04
                             151.0                       7.76000E-03      3.90000E-04
                             153.0                       3.15000E-03      1.10000E-04
