# entry-subent-pointer  : G0506-003-0 
# EXFOR reaction        : ['92-U-238', ['G,F'], 'MASS,CHN,FY,,BRA'] 
# incident energy       : 1.7278e+01 MeV 
# target                : U-238 
# product               : 84.0 <= A <= 153.0 
# level energy          : - 
# MF-MT number          : 8 - 459 
# first author          : H.Naik 
# institute             : (3INDTRM): Bhabha Atomic Research Centre (BARC), Trombay, Mumbai 
# reference             : (J,EPJ/A,49,94,2013) 
# year                  : 2013 
# facility              : (LINAC): Linear accelerator 
# git                   : https://github.com/IAEA-NDS/exfor_master/blob/main/exforall/G05/G0506.x4 
# nds                   : https://nds.iaea.org/EXFOR/G0506
#
# Charge(No Dim.)    Mass(No Dim.)  Isomer(No Dim.)    Yield(%/fiss)   dYield(%/fiss)
                              84.0                       8.86000E-03      4.40000E-04
                              84.0                       8.94000E-03      3.80000E-04
                              85.0              1.0      1.16500E-02      8.80000E-04
                              85.0              1.0      1.12600E-02      4.90000E-04
                              87.0                       2.08400E-02      2.41000E-03
                              88.0                       2.47800E-02      2.64000E-03
                              89.0                       3.01400E-02      1.26000E-03
                              89.0                       3.12900E-02      1.48000E-03
                              91.0                       3.56700E-02      8.80000E-04
                              91.0                       3.81300E-02      6.60000E-04
                              92.0                       4.34300E-02      2.16000E-03
                              93.0                       3.84300E-02      1.04000E-03
                              94.0                       4.24500E-02      1.15000E-03
                              95.0                       5.13600E-02      1.59000E-03
                              95.0                       5.43600E-02      1.97000E-03
                              97.0                       6.02800E-02      1.97000E-03
                              99.0                       5.90100E-02      9.80000E-04
                              99.0                       5.89000E-02      2.34000E-03
                             101.0                       7.76200E-02      1.59000E-03
                             103.0                       4.78100E-02      2.84000E-03
                             104.0                       3.36400E-02      2.13000E-03
                             105.0                       2.51600E-02      1.81000E-03
                             107.0                       1.22000E-02      9.80000E-04
                             112.0                       2.99000E-03      1.10000E-04
                             113.0                       2.87000E-03      4.40000E-04
                             115.0              0.0      2.44000E-03      1.60000E-04
                             115.0                       2.84000E-03      1.60000E-04
                             117.0                       2.63100E-03      2.30000E-04
                             127.0                       6.56000E-03      2.70000E-04
                             128.0                       9.86000E-03      4.50000E-04
                             129.0                       1.41700E-02      7.10000E-04
                             131.0                       4.44200E-02      1.86000E-03
                             132.0                       5.67300E-02      1.53000E-03
                             133.0                       6.81100E-02      2.08000E-03
                             134.0                       7.89100E-02      3.39000E-03
                             134.0                       8.29300E-02      3.08000E-03
                             134.0                       8.16800E-02      3.67000E-03
                             134.0                       8.22500E-02      1.97000E-03
                             135.0                       5.60700E-02      2.71000E-03
                             135.0                       5.56300E-02      5.50000E-04
                             137.0                       6.78800E-02      2.13000E-03
                             138.0              0.0      6.89000E-02      2.28000E-03
                             138.0              0.0      6.99400E-02      2.95000E-03
                             138.0              0.0      6.94500E-02      2.83000E-03
                             139.0                       5.56400E-02      2.84000E-03
                             140.0                       4.92900E-02      1.42000E-03
                             141.0                       4.32700E-02      2.34000E-03
                             142.0                       4.53400E-02      2.84000E-03
                             143.0                       4.83400E-02      2.19000E-03
                             144.0                       4.24500E-02      1.86000E-03
                             146.0                       3.20600E-02      1.86000E-03
                             146.0                       3.22700E-02      1.21000E-03
                             147.0                       2.40700E-02      1.37000E-03
                             149.0                       1.31200E-02      3.80000E-04
                             151.0                       7.49000E-03      2.80000E-04
                             153.0                       3.23000E-03      1.70000E-04
