# entry-subent-pointer  : 12099-003-0 
# EXFOR reaction        : ['62-SM-152', ['N,TOT'], ',,SIG'] 
# incident energy       : 7.5250e-06 MeV - 8.5250e-06 MeV 
# target                : Sm-152 
# product               : - 
# level energy          : - 
# MF-MT number          : 3 - 1 
# first author          : Br.A.Bernabei 
# institute             : (1USABNL): Brookhaven National Laboratory, Upton, NY 
# reference             : (J,NSE,12,63,1962) 
# year                  : 1962 
# facility              : (SPECC): Crystal spectrometer 
# git                   : https://github.com/IAEA-NDS/exfor_master/blob/main/exforall/120/12099.x4 
# nds                   : https://nds.iaea.org/EXFOR/12099
#
#       E_in(MeV)       dE_in(MeV)            XS(B)           dXS(B)
      7.52500E-06      0.00000E+00      8.05000E+03      0.00000E+00
      7.57500E-06      0.00000E+00      9.89000E+03      0.00000E+00
      7.62500E-06      0.00000E+00      1.23600E+04      0.00000E+00
      7.62500E-06      0.00000E+00      1.20700E+04      0.00000E+00
      7.67500E-06      0.00000E+00      1.56900E+04      0.00000E+00
      7.67500E-06      0.00000E+00      1.50600E+04      0.00000E+00
      7.72500E-06      0.00000E+00      2.02600E+04      0.00000E+00
      7.77500E-06      0.00000E+00      2.96900E+04      0.00000E+00
      7.82500E-06      0.00000E+00      4.50600E+04      0.00000E+00
      7.87500E-06      0.00000E+00      6.83700E+04      0.00000E+00
      7.92500E-06      0.00000E+00      1.01800E+05      0.00000E+00
      7.97500E-06      0.00000E+00      1.45600E+05      0.00000E+00
      8.03600E-06      0.00000E+00      1.76200E+05      0.00000E+00
      8.07500E-06      0.00000E+00      1.61300E+05      0.00000E+00
      8.12500E-06      0.00000E+00      1.22100E+05      0.00000E+00
      8.17500E-06      0.00000E+00      8.14500E+04      0.00000E+00
      8.22500E-06      0.00000E+00      5.63300E+04      0.00000E+00
      8.27500E-06      0.00000E+00      3.62500E+04      0.00000E+00
      8.32500E-06      0.00000E+00      2.33300E+04      0.00000E+00
      8.37500E-06      0.00000E+00      1.73500E+04      0.00000E+00
      8.37500E-06      0.00000E+00      1.83100E+04      0.00000E+00
      8.42500E-06      0.00000E+00      1.44200E+04      0.00000E+00
      8.47500E-06      0.00000E+00      1.16800E+04      0.00000E+00
      8.52500E-06      0.00000E+00      9.64000E+03      0.00000E+00
