# entry-subent-pointer  : 12050-002-0 
# EXFOR reaction        : (57-LA-0(N,TOT),,SIG) 
# incident energy       : 3.9390e-06 MeV - 4.2410e-05 MeV 
# target                : La-0 
# product               : - 
# level energy          : - 
# MF-MT number          : 3 - 1 
# first author          : Harvey 
# institute             : (1USAORL): Oak Ridge National Laboratory, Oak Ridge, TN 
# reference             : (J,BAP,4,385(B2),5912) 
# year                  : 1959 
# facility              : None 
# git                   : https://github.com/IAEA-NDS/exfor_master/blob/main/exforall/120/12050.x4 
# nds                   : https://nds.iaea.org/EXFOR/12050
#
#       E_in(MeV)         dE_in(MeV)        XS(B)             dXS(B)
        3.9390E-06        0.0000E+00        1.0210E+01        0.0000E+00
        3.9770E-06        0.0000E+00        1.0140E+01        0.0000E+00
        4.0160E-06        0.0000E+00        1.0140E+01        0.0000E+00
        4.0560E-06        0.0000E+00        9.9540E+00        0.0000E+00
        4.0970E-06        0.0000E+00        1.0040E+01        0.0000E+00
        4.1380E-06        0.0000E+00        1.0180E+01        0.0000E+00
        4.1790E-06        0.0000E+00        1.0340E+01        0.0000E+00
        4.2210E-06        0.0000E+00        1.0290E+01        0.0000E+00
        4.2640E-06        0.0000E+00        1.0300E+01        0.0000E+00
        4.3080E-06        0.0000E+00        1.0200E+01        0.0000E+00
        4.3520E-06        0.0000E+00        1.0080E+01        0.0000E+00
        4.3970E-06        0.0000E+00        1.0180E+01        0.0000E+00
        4.4420E-06        0.0000E+00        1.0030E+01        0.0000E+00
        4.4890E-06        0.0000E+00        9.8360E+00        0.0000E+00
        4.5360E-06        0.0000E+00        1.0190E+01        0.0000E+00
        4.5830E-06        0.0000E+00        1.0140E+01        0.0000E+00
        4.6320E-06        0.0000E+00        9.8870E+00        0.0000E+00
        4.6810E-06        0.0000E+00        9.9160E+00        0.0000E+00
        4.7310E-06        0.0000E+00        9.7220E+00        0.0000E+00
        4.7820E-06        0.0000E+00        9.8020E+00        0.0000E+00
        4.8340E-06        0.0000E+00        9.7810E+00        0.0000E+00
        4.8860E-06        0.0000E+00        9.5860E+00        0.0000E+00
        4.9400E-06        0.0000E+00        1.0020E+01        0.0000E+00
        4.9940E-06        0.0000E+00        1.0020E+01        0.0000E+00
        5.0490E-06        0.0000E+00        9.8560E+00        0.0000E+00
        5.1050E-06        0.0000E+00        9.7750E+00        0.0000E+00
        5.1620E-06        0.0000E+00        9.9990E+00        0.0000E+00
        5.2200E-06        0.0000E+00        9.7730E+00        0.0000E+00
        5.2790E-06        0.0000E+00        9.9230E+00        0.0000E+00
        5.3390E-06        0.0000E+00        9.7580E+00        0.0000E+00
        5.4000E-06        0.0000E+00        9.7970E+00        0.0000E+00
        5.4630E-06        0.0000E+00        9.7960E+00        0.0000E+00
        5.5260E-06        0.0000E+00        9.5180E+00        0.0000E+00
        5.5900E-06        0.0000E+00        9.7990E+00        0.0000E+00
        5.6550E-06        0.0000E+00        9.4730E+00        0.0000E+00
        5.7220E-06        0.0000E+00        9.5280E+00        0.0000E+00
        5.7900E-06        0.0000E+00        9.8050E+00        0.0000E+00
        5.8590E-06        0.0000E+00        9.6680E+00        0.0000E+00
        5.9290E-06        0.0000E+00        9.5040E+00        0.0000E+00
        6.0060E-06        0.0000E+00        9.7180E+00        0.0000E+00
        6.0730E-06        0.0000E+00        9.8370E+00        0.0000E+00
        6.1470E-06        0.0000E+00        9.7470E+00        0.0000E+00
        6.2220E-06        0.0000E+00        9.7930E+00        0.0000E+00
        6.2990E-06        0.0000E+00        9.6510E+00        0.0000E+00
        6.3770E-06        0.0000E+00        9.4970E+00        0.0000E+00
        6.4570E-06        0.0000E+00        9.5440E+00        0.0000E+00
        6.5380E-06        0.0000E+00        9.3910E+00        0.0000E+00
        6.6210E-06        0.0000E+00        9.3680E+00        0.0000E+00
        6.7060E-06        0.0000E+00        9.3590E+00        0.0000E+00
        6.7920E-06        0.0000E+00        9.3720E+00        0.0000E+00
        6.8790E-06        0.0000E+00        9.2850E+00        0.0000E+00
        6.9690E-06        0.0000E+00        9.1560E+00        0.0000E+00
        7.0600E-06        0.0000E+00        9.1720E+00        0.0000E+00
        7.1520E-06        0.0000E+00        9.3260E+00        0.0000E+00
        7.2470E-06        0.0000E+00        9.2230E+00        0.0000E+00
        7.3440E-06        0.0000E+00        9.1590E+00        0.0000E+00
        7.4420E-06        0.0000E+00        9.1610E+00        0.0000E+00
        7.5430E-06        0.0000E+00        9.0630E+00        0.0000E+00
        7.6460E-06        0.0000E+00        9.2940E+00        0.0000E+00
        7.7500E-06        0.0000E+00        9.2020E+00        0.0000E+00
        7.8570E-06        0.0000E+00        9.2900E+00        0.0000E+00
        7.9660E-06        0.0000E+00        9.3210E+00        0.0000E+00
        8.0780E-06        0.0000E+00        9.2210E+00        0.0000E+00
        8.1920E-06        0.0000E+00        9.1090E+00        0.0000E+00
        8.3080E-06        0.0000E+00        9.2290E+00        0.0000E+00
        8.4270E-06        0.0000E+00        9.0840E+00        0.0000E+00
        8.5480E-06        0.0000E+00        8.9520E+00        0.0000E+00
        8.6720E-06        0.0000E+00        8.9570E+00        0.0000E+00
        8.7980E-06        0.0000E+00        8.9240E+00        0.0000E+00
        8.9280E-06        0.0000E+00        9.0400E+00        0.0000E+00
        9.0600E-06        0.0000E+00        8.9230E+00        0.0000E+00
        9.1950E-06        0.0000E+00        8.8000E+00        0.0000E+00
        9.3330E-06        0.0000E+00        9.0870E+00        0.0000E+00
        9.4750E-06        0.0000E+00        8.9590E+00        0.0000E+00
        9.6200E-06        0.0000E+00        8.9350E+00        0.0000E+00
        9.7680E-06        0.0000E+00        9.1240E+00        0.0000E+00
        9.9190E-06        0.0000E+00        8.8390E+00        0.0000E+00
        1.0070E-05        0.0000E+00        8.7010E+00        0.0000E+00
        1.0230E-05        0.0000E+00        8.7400E+00        0.0000E+00
        1.0390E-05        0.0000E+00        8.7640E+00        0.0000E+00
        1.0490E-05        0.0000E+00        9.4330E+00        0.0000E+00
        1.0540E-05        0.0000E+00        9.3700E+00        0.0000E+00
        1.0560E-05        0.0000E+00        8.6010E+00        0.0000E+00
        1.0580E-05        0.0000E+00        8.9630E+00        0.0000E+00
        1.0620E-05        0.0000E+00        9.0190E+00        0.0000E+00
        1.0660E-05        0.0000E+00        8.9490E+00        0.0000E+00
        1.0710E-05        0.0000E+00        9.2420E+00        0.0000E+00
        1.0750E-05        0.0000E+00        8.8650E+00        0.0000E+00
        1.0790E-05        0.0000E+00        8.9800E+00        0.0000E+00
        1.0840E-05        0.0000E+00        9.0670E+00        0.0000E+00
        1.0880E-05        0.0000E+00        9.2000E+00        0.0000E+00
        1.0920E-05        0.0000E+00        8.8400E+00        0.0000E+00
        1.0970E-05        0.0000E+00        8.9120E+00        0.0000E+00
        1.1010E-05        0.0000E+00        8.8200E+00        0.0000E+00
        1.1060E-05        0.0000E+00        9.0040E+00        0.0000E+00
        1.1100E-05        0.0000E+00        9.1350E+00        0.0000E+00
        1.1150E-05        0.0000E+00        9.0070E+00        0.0000E+00
        1.1190E-05        0.0000E+00        8.9310E+00        0.0000E+00
        1.1240E-05        0.0000E+00        9.1420E+00        0.0000E+00
        1.1290E-05        0.0000E+00        9.0260E+00        0.0000E+00
        1.1330E-05        0.0000E+00        8.9920E+00        0.0000E+00
        1.1380E-05        0.0000E+00        8.9740E+00        0.0000E+00
        1.1430E-05        0.0000E+00        9.0260E+00        0.0000E+00
        1.1480E-05        0.0000E+00        8.7110E+00        0.0000E+00
        1.1520E-05        0.0000E+00        9.0580E+00        0.0000E+00
        1.1570E-05        0.0000E+00        9.0090E+00        0.0000E+00
        1.1620E-05        0.0000E+00        8.6770E+00        0.0000E+00
        1.1670E-05        0.0000E+00        8.8540E+00        0.0000E+00
        1.1720E-05        0.0000E+00        8.8270E+00        0.0000E+00
        1.1770E-05        0.0000E+00        9.0260E+00        0.0000E+00
        1.1820E-05        0.0000E+00        9.0420E+00        0.0000E+00
        1.1870E-05        0.0000E+00        8.8720E+00        0.0000E+00
        1.1920E-05        0.0000E+00        8.9320E+00        0.0000E+00
        1.1970E-05        0.0000E+00        8.9200E+00        0.0000E+00
        1.2020E-05        0.0000E+00        8.9690E+00        0.0000E+00
        1.2070E-05        0.0000E+00        8.8480E+00        0.0000E+00
        1.2120E-05        0.0000E+00        8.9170E+00        0.0000E+00
        1.2170E-05        0.0000E+00        8.9640E+00        0.0000E+00
        1.2230E-05        0.0000E+00        8.9010E+00        0.0000E+00
        1.2280E-05        0.0000E+00        8.7830E+00        0.0000E+00
        1.2330E-05        0.0000E+00        9.0230E+00        0.0000E+00
        1.2380E-05        0.0000E+00        8.7400E+00        0.0000E+00
        1.2440E-05        0.0000E+00        8.6940E+00        0.0000E+00
        1.2490E-05        0.0000E+00        8.7570E+00        0.0000E+00
        1.2550E-05        0.0000E+00        9.1090E+00        0.0000E+00
        1.2600E-05        0.0000E+00        8.8180E+00        0.0000E+00
        1.2660E-05        0.0000E+00        8.9810E+00        0.0000E+00
        1.2710E-05        0.0000E+00        8.8800E+00        0.0000E+00
        1.2770E-05        0.0000E+00        8.8440E+00        0.0000E+00
        1.2820E-05        0.0000E+00        8.8700E+00        0.0000E+00
        1.2880E-05        0.0000E+00        8.7720E+00        0.0000E+00
        1.2940E-05        0.0000E+00        8.7550E+00        0.0000E+00
        1.2990E-05        0.0000E+00        8.8740E+00        0.0000E+00
        1.3050E-05        0.0000E+00        8.8930E+00        0.0000E+00
        1.3110E-05        0.0000E+00        8.4340E+00        0.0000E+00
        1.3170E-05        0.0000E+00        8.5810E+00        0.0000E+00
        1.3230E-05        0.0000E+00        8.8120E+00        0.0000E+00
        1.3290E-05        0.0000E+00        8.7130E+00        0.0000E+00
        1.3350E-05        0.0000E+00        8.8250E+00        0.0000E+00
        1.3410E-05        0.0000E+00        8.6540E+00        0.0000E+00
        1.3470E-05        0.0000E+00        8.7300E+00        0.0000E+00
        1.3530E-05        0.0000E+00        8.7530E+00        0.0000E+00
        1.3590E-05        0.0000E+00        8.7080E+00        0.0000E+00
        1.3650E-05        0.0000E+00        8.7460E+00        0.0000E+00
        1.3710E-05        0.0000E+00        8.5670E+00        0.0000E+00
        1.3770E-05        0.0000E+00        8.5900E+00        0.0000E+00
        1.3840E-05        0.0000E+00        8.8450E+00        0.0000E+00
        1.3900E-05        0.0000E+00        8.6560E+00        0.0000E+00
        1.3960E-05        0.0000E+00        8.5500E+00        0.0000E+00
        1.4030E-05        0.0000E+00        8.6060E+00        0.0000E+00
        1.4090E-05        0.0000E+00        8.2690E+00        0.0000E+00
        1.4160E-05        0.0000E+00        8.5500E+00        0.0000E+00
        1.4220E-05        0.0000E+00        8.4140E+00        0.0000E+00
        1.4290E-05        0.0000E+00        8.7580E+00        0.0000E+00
        1.4360E-05        0.0000E+00        8.2900E+00        0.0000E+00
        1.4420E-05        0.0000E+00        8.6940E+00        0.0000E+00
        1.4490E-05        0.0000E+00        8.6270E+00        0.0000E+00
        1.4560E-05        0.0000E+00        8.5890E+00        0.0000E+00
        1.4630E-05        0.0000E+00        8.5380E+00        0.0000E+00
        1.4700E-05        0.0000E+00        8.7110E+00        0.0000E+00
        1.4770E-05        0.0000E+00        8.7260E+00        0.0000E+00
        1.4840E-05        0.0000E+00        8.3490E+00        0.0000E+00
        1.4910E-05        0.0000E+00        8.5390E+00        0.0000E+00
        1.4980E-05        0.0000E+00        8.1790E+00        0.0000E+00
        1.5050E-05        0.0000E+00        8.4330E+00        0.0000E+00
        1.5120E-05        0.0000E+00        8.3920E+00        0.0000E+00
        1.5190E-05        0.0000E+00        8.2040E+00        0.0000E+00
        1.5260E-05        0.0000E+00        8.3810E+00        0.0000E+00
        1.5340E-05        0.0000E+00        8.4110E+00        0.0000E+00
        1.5410E-05        0.0000E+00        8.3380E+00        0.0000E+00
        1.5490E-05        0.0000E+00        8.4530E+00        0.0000E+00
        1.5560E-05        0.0000E+00        8.5190E+00        0.0000E+00
        1.5640E-05        0.0000E+00        8.5900E+00        0.0000E+00
        1.5710E-05        0.0000E+00        8.3900E+00        0.0000E+00
        1.5790E-05        0.0000E+00        8.2990E+00        0.0000E+00
        1.5870E-05        0.0000E+00        8.3280E+00        0.0000E+00
        1.5950E-05        0.0000E+00        8.5180E+00        0.0000E+00
        1.6020E-05        0.0000E+00        8.1360E+00        0.0000E+00
        1.6100E-05        0.0000E+00        8.3330E+00        0.0000E+00
        1.6180E-05        0.0000E+00        8.2440E+00        0.0000E+00
        1.6260E-05        0.0000E+00        8.2950E+00        0.0000E+00
        1.6340E-05        0.0000E+00        8.4060E+00        0.0000E+00
        1.6420E-05        0.0000E+00        8.2120E+00        0.0000E+00
        1.6510E-05        0.0000E+00        8.3520E+00        0.0000E+00
        1.6590E-05        0.0000E+00        8.2130E+00        0.0000E+00
        1.6670E-05        0.0000E+00        8.2310E+00        0.0000E+00
        1.6760E-05        0.0000E+00        8.1550E+00        0.0000E+00
        1.6840E-05        0.0000E+00        8.1120E+00        0.0000E+00
        1.6930E-05        0.0000E+00        8.1600E+00        0.0000E+00
        1.7010E-05        0.0000E+00        8.2120E+00        0.0000E+00
        1.7100E-05        0.0000E+00        8.1690E+00        0.0000E+00
        1.7180E-05        0.0000E+00        8.1620E+00        0.0000E+00
        1.7270E-05        0.0000E+00        8.1950E+00        0.0000E+00
        1.7360E-05        0.0000E+00        8.1220E+00        0.0000E+00
        1.7450E-05        0.0000E+00        8.2490E+00        0.0000E+00
        1.7540E-05        0.0000E+00        8.1280E+00        0.0000E+00
        1.7630E-05        0.0000E+00        8.0390E+00        0.0000E+00
        1.7720E-05        0.0000E+00        7.9110E+00        0.0000E+00
        1.7810E-05        0.0000E+00        7.9740E+00        0.0000E+00
        1.7910E-05        0.0000E+00        8.0690E+00        0.0000E+00
        1.8000E-05        0.0000E+00        7.9960E+00        0.0000E+00
        1.8090E-05        0.0000E+00        8.0560E+00        0.0000E+00
        1.8190E-05        0.0000E+00        8.1340E+00        0.0000E+00
        1.8280E-05        0.0000E+00        8.0550E+00        0.0000E+00
        1.8380E-05        0.0000E+00        8.0540E+00        0.0000E+00
        1.8480E-05        0.0000E+00        8.1230E+00        0.0000E+00
        1.8570E-05        0.0000E+00        7.9950E+00        0.0000E+00
        1.8670E-05        0.0000E+00        8.1100E+00        0.0000E+00
        1.8770E-05        0.0000E+00        8.3440E+00        0.0000E+00
        1.8870E-05        0.0000E+00        8.4070E+00        0.0000E+00
        1.8970E-05        0.0000E+00        8.3770E+00        0.0000E+00
        1.9070E-05        0.0000E+00        8.2820E+00        0.0000E+00
        1.9180E-05        0.0000E+00        8.2570E+00        0.0000E+00
        1.9280E-05        0.0000E+00        8.0080E+00        0.0000E+00
        1.9380E-05        0.0000E+00        8.2060E+00        0.0000E+00
        1.9490E-05        0.0000E+00        7.8620E+00        0.0000E+00
        1.9600E-05        0.0000E+00        7.9840E+00        0.0000E+00
        1.9700E-05        0.0000E+00        7.9850E+00        0.0000E+00
        1.9810E-05        0.0000E+00        8.0340E+00        0.0000E+00
        1.9920E-05        0.0000E+00        8.1050E+00        0.0000E+00
        2.0030E-05        0.0000E+00        8.0890E+00        0.0000E+00
        2.0140E-05        0.0000E+00        7.9890E+00        0.0000E+00
        2.0250E-05        0.0000E+00        7.8980E+00        0.0000E+00
        2.0360E-05        0.0000E+00        7.7540E+00        0.0000E+00
        2.0480E-05        0.0000E+00        7.8090E+00        0.0000E+00
        2.0590E-05        0.0000E+00        7.9750E+00        0.0000E+00
        2.0700E-05        0.0000E+00        7.7910E+00        0.0000E+00
        2.0820E-05        0.0000E+00        7.8120E+00        0.0000E+00
        2.0940E-05        0.0000E+00        7.9710E+00        0.0000E+00
        2.1060E-05        0.0000E+00        8.2190E+00        0.0000E+00
        2.1170E-05        0.0000E+00        8.4430E+00        0.0000E+00
        2.1290E-05        0.0000E+00        8.4010E+00        0.0000E+00
        2.1420E-05        0.0000E+00        8.3260E+00        0.0000E+00
        2.1540E-05        0.0000E+00        8.1800E+00        0.0000E+00
        2.1660E-05        0.0000E+00        7.9370E+00        0.0000E+00
        2.1780E-05        0.0000E+00        7.6260E+00        0.0000E+00
        2.1910E-05        0.0000E+00        7.6550E+00        0.0000E+00
        2.2040E-05        0.0000E+00        7.5230E+00        0.0000E+00
        2.2160E-05        0.0000E+00        7.7020E+00        0.0000E+00
        2.2290E-05        0.0000E+00        7.7220E+00        0.0000E+00
        2.2420E-05        0.0000E+00        7.5940E+00        0.0000E+00
        2.2550E-05        0.0000E+00        7.6630E+00        0.0000E+00
        2.2680E-05        0.0000E+00        7.6370E+00        0.0000E+00
        2.2820E-05        0.0000E+00        7.5730E+00        0.0000E+00
        2.2950E-05        0.0000E+00        7.6240E+00        0.0000E+00
        2.3090E-05        0.0000E+00        7.6150E+00        0.0000E+00
        2.3220E-05        0.0000E+00        7.6110E+00        0.0000E+00
        2.3360E-05        0.0000E+00        7.5180E+00        0.0000E+00
        2.3500E-05        0.0000E+00        7.6330E+00        0.0000E+00
        2.3640E-05        0.0000E+00        7.5220E+00        0.0000E+00
        2.3780E-05        0.0000E+00        7.6180E+00        0.0000E+00
        2.3930E-05        0.0000E+00        7.5100E+00        0.0000E+00
        2.4070E-05        0.0000E+00        7.6270E+00        0.0000E+00
        2.4220E-05        0.0000E+00        7.5280E+00        0.0000E+00
        2.4360E-05        0.0000E+00        7.5260E+00        0.0000E+00
        2.4510E-05        0.0000E+00        7.2270E+00        0.0000E+00
        2.4660E-05        0.0000E+00        7.4820E+00        0.0000E+00
        2.4810E-05        0.0000E+00        7.2780E+00        0.0000E+00
        2.4960E-05        0.0000E+00        7.3560E+00        0.0000E+00
        2.5120E-05        0.0000E+00        7.3560E+00        0.0000E+00
        2.5270E-05        0.0000E+00        7.2770E+00        0.0000E+00
        2.5430E-05        0.0000E+00        7.3520E+00        0.0000E+00
        2.5590E-05        0.0000E+00        7.5030E+00        0.0000E+00
        2.5750E-05        0.0000E+00        7.3720E+00        0.0000E+00
        2.5910E-05        0.0000E+00        7.1940E+00        0.0000E+00
        2.6070E-05        0.0000E+00        7.1970E+00        0.0000E+00
        2.6230E-05        0.0000E+00        7.2670E+00        0.0000E+00
        2.6400E-05        0.0000E+00        7.2380E+00        0.0000E+00
        2.6570E-05        0.0000E+00        7.1620E+00        0.0000E+00
        2.6730E-05        0.0000E+00        7.5250E+00        0.0000E+00
        2.6900E-05        0.0000E+00        7.1000E+00        0.0000E+00
        2.7080E-05        0.0000E+00        7.1940E+00        0.0000E+00
        2.7250E-05        0.0000E+00        7.1460E+00        0.0000E+00
        2.7430E-05        0.0000E+00        7.2530E+00        0.0000E+00
        2.7600E-05        0.0000E+00        7.1290E+00        0.0000E+00
        2.7780E-05        0.0000E+00        7.0810E+00        0.0000E+00
        2.7960E-05        0.0000E+00        7.1920E+00        0.0000E+00
        2.8140E-05        0.0000E+00        7.2170E+00        0.0000E+00
        2.8330E-05        0.0000E+00        7.0380E+00        0.0000E+00
        2.8510E-05        0.0000E+00        7.1310E+00        0.0000E+00
        2.8700E-05        0.0000E+00        7.2000E+00        0.0000E+00
        2.8890E-05        0.0000E+00        7.0380E+00        0.0000E+00
        2.9080E-05        0.0000E+00        7.1960E+00        0.0000E+00
        2.9280E-05        0.0000E+00        7.0610E+00        0.0000E+00
        2.9470E-05        0.0000E+00        6.9340E+00        0.0000E+00
        2.9670E-05        0.0000E+00        7.1950E+00        0.0000E+00
        2.9870E-05        0.0000E+00        7.1430E+00        0.0000E+00
        3.0070E-05        0.0000E+00        7.0500E+00        0.0000E+00
        3.0270E-05        0.0000E+00        7.0200E+00        0.0000E+00
        3.0480E-05        0.0000E+00        6.9210E+00        0.0000E+00
        3.0680E-05        0.0000E+00        7.0520E+00        0.0000E+00
        3.0890E-05        0.0000E+00        6.9150E+00        0.0000E+00
        3.1100E-05        0.0000E+00        6.7940E+00        0.0000E+00
        3.1320E-05        0.0000E+00        6.9390E+00        0.0000E+00
        3.1530E-05        0.0000E+00        6.8800E+00        0.0000E+00
        3.1750E-05        0.0000E+00        6.9020E+00        0.0000E+00
        3.1970E-05        0.0000E+00        6.9170E+00        0.0000E+00
        3.2200E-05        0.0000E+00        6.9500E+00        0.0000E+00
        3.2420E-05        0.0000E+00        6.9920E+00        0.0000E+00
        3.2650E-05        0.0000E+00        6.8370E+00        0.0000E+00
        3.2880E-05        0.0000E+00        6.9530E+00        0.0000E+00
        3.3110E-05        0.0000E+00        6.8550E+00        0.0000E+00
        3.3350E-05        0.0000E+00        6.7610E+00        0.0000E+00
        3.3580E-05        0.0000E+00        6.8860E+00        0.0000E+00
        3.3820E-05        0.0000E+00        6.8720E+00        0.0000E+00
        3.4070E-05        0.0000E+00        6.8040E+00        0.0000E+00
        3.4310E-05        0.0000E+00        6.6350E+00        0.0000E+00
        3.4560E-05        0.0000E+00        6.6310E+00        0.0000E+00
        3.4810E-05        0.0000E+00        6.6480E+00        0.0000E+00
        3.5060E-05        0.0000E+00        6.6020E+00        0.0000E+00
        3.5320E-05        0.0000E+00        6.6870E+00        0.0000E+00
        3.5580E-05        0.0000E+00        6.8020E+00        0.0000E+00
        3.5840E-05        0.0000E+00        6.7030E+00        0.0000E+00
        3.6100E-05        0.0000E+00        6.6330E+00        0.0000E+00
        3.6370E-05        0.0000E+00        6.6000E+00        0.0000E+00
        3.6640E-05        0.0000E+00        6.6240E+00        0.0000E+00
        3.6910E-05        0.0000E+00        6.5970E+00        0.0000E+00
        3.7190E-05        0.0000E+00        6.5420E+00        0.0000E+00
        3.7470E-05        0.0000E+00        6.4980E+00        0.0000E+00
        3.7750E-05        0.0000E+00        6.5180E+00        0.0000E+00
        3.8040E-05        0.0000E+00        6.5570E+00        0.0000E+00
        3.8330E-05        0.0000E+00        6.3050E+00        0.0000E+00
        3.8620E-05        0.0000E+00        6.4860E+00        0.0000E+00
        3.8920E-05        0.0000E+00        6.2870E+00        0.0000E+00
        3.9220E-05        0.0000E+00        6.4800E+00        0.0000E+00
        3.9520E-05        0.0000E+00        6.3760E+00        0.0000E+00
        3.9830E-05        0.0000E+00        6.4250E+00        0.0000E+00
        4.0140E-05        0.0000E+00        6.3470E+00        0.0000E+00
        4.0450E-05        0.0000E+00        6.1820E+00        0.0000E+00
        4.0770E-05        0.0000E+00        6.2090E+00        0.0000E+00
        4.1090E-05        0.0000E+00        6.2640E+00        0.0000E+00
        4.1410E-05        0.0000E+00        6.4000E+00        0.0000E+00
        4.1740E-05        0.0000E+00        6.2570E+00        0.0000E+00
        4.2070E-05        0.0000E+00        6.9440E+00        0.0000E+00
        4.2410E-05        0.0000E+00        6.6280E+00        0.0000E+00
