# entry-subent-pointer  : E1988-006-0 
# EXFOR reaction        : ['29-CU-0', ['D,X'], '29-CU-61,CUM,SIG'] 
# incident energy       : 2.2750e+01 MeV - 4.8270e+01 MeV 
# target                : Cu-0 
# product               : Cu-61 
# level energy          : - 
# MF-MT number          : 3 - 10 
# first author          : M.Nakao 
# institute             : (2JPNJAE): Japan Atomic Energy Agency (JAEA) 
# reference             : (J,NIM/A,562,785,2006) 
# year                  : 2006 
# facility              : (ISOCY): Isochronous cyclotron 
# git                   : https://github.com/IAEA-NDS/exfor_master/blob/main/exforall/E19/E1988.x4 
# nds                   : https://nds.iaea.org/EXFOR/E1988
#
#       E_in(MeV)       dE_in(MeV)            XS(B)           dXS(B)
      2.27500E+01      0.00000E+00      4.00000E-04      0.00000E+00
      2.43100E+01      0.00000E+00      5.00000E-04      0.00000E+00
      2.49200E+01      0.00000E+00      7.00000E-04      0.00000E+00
      2.54400E+01      0.00000E+00      6.00000E-04      0.00000E+00
      2.68800E+01      0.00000E+00      1.10000E-03      0.00000E+00
      2.74500E+01      0.00000E+00      1.40000E-03      0.00000E+00
      2.79200E+01      0.00000E+00      1.80000E-03      0.00000E+00
      2.92800E+01      0.00000E+00      2.80000E-03      0.00000E+00
      2.98100E+01      0.00000E+00      3.40000E-03      0.00000E+00
      3.02600E+01      0.00000E+00      4.20000E-03      0.00000E+00
      3.15300E+01      0.00000E+00      7.80000E-03      0.00000E+00
      3.20400E+01      0.00000E+00      9.30000E-03      0.00000E+00
      3.24600E+01      0.00000E+00      1.15000E-02      0.00000E+00
      3.36800E+01      0.00000E+00      1.86000E-02      0.00000E+00
      3.41500E+01      0.00000E+00      2.22000E-02      0.00000E+00
      3.43100E+01      0.00000E+00      2.26800E-02      0.00000E+00
      3.51900E+01      0.00000E+00      3.14800E-02      0.00000E+00
      3.60400E+01      0.00000E+00      3.86900E-02      0.00000E+00
      3.68900E+01      0.00000E+00      4.80800E-02      0.00000E+00
      3.77200E+01      0.00000E+00      5.41900E-02      0.00000E+00
      3.85400E+01      0.00000E+00      6.39900E-02      0.00000E+00
      3.93500E+01      0.00000E+00      7.03000E-02      0.00000E+00
      4.01500E+01      0.00000E+00      7.68400E-02      0.00000E+00
      4.09900E+01      0.00000E+00      7.13900E-02      0.00000E+00
      4.18600E+01      0.00000E+00      7.73900E-02      0.00000E+00
      4.36800E+01      0.00000E+00      9.67400E-02      0.00000E+00
      4.47400E+01      0.00000E+00      1.02250E-01      0.00000E+00
      4.57800E+01      0.00000E+00      1.09370E-01      0.00000E+00
      4.68900E+01      0.00000E+00      1.12320E-01      0.00000E+00
      4.82700E+01      0.00000E+00      1.14150E-01      0.00000E+00
