# entry-subent-pointer  : 11720-010-0 
# EXFOR reaction        : (58-CE-140(N,INL)58-CE-140,PAR,SIG) 
# incident energy       : 1.6130e+00 MeV - 1.9700e+00 MeV 
# target                : Ce-140 
# product               : Ce-140 
# level energy          : 1.5970e+00 MeV 
# MF-MT number          : 3 - 51 
# first author          : Tucker 
# institute             : (1USASTF): Stanford University, Stanford, CA 
# reference             : (J,PR,137,B1181,1965) 
# year                  : 1965 
# facility              : None 
# git                   : https://github.com/IAEA-NDS/exfor_master/blob/main/exforall/117/11720.x4 
# nds                   : https://nds.iaea.org/EXFOR/11720
#
#       E_in(MeV)         dE_in(MeV)        XS(B)             dXS(B)
        1.6130E+00        0.0000E+00        9.7000E-02        1.9400E-02
        1.6210E+00        0.0000E+00        1.6300E-01        3.2600E-02
        1.6290E+00        0.0000E+00        1.8600E-01        3.7200E-02
        1.6370E+00        0.0000E+00        2.2700E-01        4.5400E-02
        1.6450E+00        0.0000E+00        2.1000E-01        4.2000E-02
        1.6460E+00        0.0000E+00        2.6000E-01        5.2000E-02
        1.6570E+00        0.0000E+00        2.5100E-01        5.0200E-02
        1.6640E+00        0.0000E+00        2.5300E-01        5.0600E-02
        1.6720E+00        0.0000E+00        3.2200E-01        6.4400E-02
        1.6740E+00        0.0000E+00        3.1200E-01        6.2400E-02
        1.6800E+00        0.0000E+00        3.5400E-01        7.0800E-02
        1.6880E+00        0.0000E+00        3.3300E-01        6.6600E-02
        1.6960E+00        0.0000E+00        3.7500E-01        7.5000E-02
        1.7010E+00        0.0000E+00        3.5500E-01        7.1000E-02
        1.7050E+00        0.0000E+00        3.6600E-01        7.3200E-02
        1.7220E+00        0.0000E+00        4.1200E-01        8.2400E-02
        1.7280E+00        0.0000E+00        4.2300E-01        8.4600E-02
        1.7300E+00        0.0000E+00        3.9000E-01        7.8000E-02
        1.7390E+00        0.0000E+00        4.3200E-01        8.6400E-02
        1.7470E+00        0.0000E+00        4.4400E-01        8.8800E-02
        1.7560E+00        0.0000E+00        4.4600E-01        8.9200E-02
        1.7640E+00        0.0000E+00        4.8000E-01        9.6000E-02
        1.7780E+00        0.0000E+00        5.0700E-01        1.0140E-01
        1.7830E+00        0.0000E+00        5.0600E-01        1.0120E-01
        1.7920E+00        0.0000E+00        5.3200E-01        1.0640E-01
        1.8070E+00        0.0000E+00        5.4300E-01        1.0860E-01
        1.8120E+00        0.0000E+00        5.8500E-01        1.1700E-01
        1.8130E+00        0.0000E+00        5.6400E-01        1.1280E-01
        1.8210E+00        0.0000E+00        5.1400E-01        1.0280E-01
        1.8290E+00        0.0000E+00        5.5000E-01        1.1000E-01
        1.8400E+00        0.0000E+00        5.1800E-01        1.0360E-01
        1.8490E+00        0.0000E+00        5.3000E-01        1.0600E-01
        1.8630E+00        0.0000E+00        5.8900E-01        1.1780E-01
        1.8640E+00        0.0000E+00        5.7200E-01        1.1440E-01
        1.8770E+00        0.0000E+00        6.0200E-01        1.2040E-01
        1.9100E+00        0.0000E+00        6.2700E-01        1.2540E-01
        1.9700E+00        0.0000E+00        6.1200E-01        1.2240E-01
