# entry-subent-pointer  : E2337-002-0 
# EXFOR reaction        : ['92-U-233', ['P,F'], 'MASS,PRE,FY'] 
# incident energy       : 1.1500e+01 MeV 
# target                : U-233 
# product               : 80.5 <= A <= 152.5 
# level energy          : - 
# MF-MT number          : 8 - 460 
# first author          : I.Nishinaka 
# institute             : (2JPNJAE): Japan Atomic Energy Agency (JAEA) 
# reference             : (J,EPJ/A,47,(1),9,2011) 
# year                  : 2011 
# facility              : (ACCEL): Accelerator 
# git                   : https://github.com/IAEA-NDS/exfor_master/blob/main/exforall/E23/E2337.x4 
# nds                   : https://nds.iaea.org/EXFOR/E2337
#
# Charge(No Dim.)    Mass(No Dim.)  Isomer(No Dim.)    Yield(%/fiss)   dYield(%/fiss)
                              80.5                       6.80000E-03      0.00000E+00
                              82.5                       1.25000E-02      0.00000E+00
                              84.5                       2.05000E-02      0.00000E+00
                              86.5                       3.14000E-02      0.00000E+00
                              88.5                       4.46000E-02      0.00000E+00
                              90.5                       6.01000E-02      0.00000E+00
                              92.5                       7.35000E-02      0.00000E+00
                              94.5                       8.49000E-02      0.00000E+00
                              96.5                       9.10000E-02      0.00000E+00
                              98.5                       9.05000E-02      0.00000E+00
                             100.5                       9.11000E-02      0.00000E+00
                             102.5                       8.11000E-02      0.00000E+00
                             104.5                       6.81000E-02      0.00000E+00
                             106.5                       5.65000E-02      0.00000E+00
                             108.5                       4.76000E-02      0.00000E+00
                             110.5                       4.00000E-02      0.00000E+00
                             112.5                       3.68000E-02      0.00000E+00
                             114.5                       3.33000E-02      0.00000E+00
                             116.5                       3.26000E-02      0.00000E+00
                             118.5                       3.32000E-02      0.00000E+00
                             120.5                       3.47000E-02      0.00000E+00
                             122.5                       3.83000E-02      0.00000E+00
                             124.5                       4.37000E-02      0.00000E+00
                             126.5                       5.13000E-02      0.00000E+00
                             128.5                       6.24000E-02      0.00000E+00
                             130.5                       7.45000E-02      0.00000E+00
                             132.5                       8.68000E-02      0.00000E+00
                             134.5                       9.12000E-02      0.00000E+00
                             136.5                       9.22000E-02      0.00000E+00
                             138.5                       8.82000E-02      0.00000E+00
                             140.5                       7.90000E-02      0.00000E+00
                             142.5                       6.76000E-02      0.00000E+00
                             144.5                       5.25000E-02      0.00000E+00
                             146.5                       3.76000E-02      0.00000E+00
                             148.5                       2.53000E-02      0.00000E+00
                             150.5                       1.62000E-02      0.00000E+00
                             152.5                       9.40000E-03      0.00000E+00
