# entry-subent-pointer  : 10955-002-0 
# EXFOR reaction        : (92-U-233(N,TOT),,SIG) 
# incident energy       : 1.1630e-08 MeV - 3.8428e-06 MeV 
# target                : U-233 
# product               : - 
# level energy          : - 
# MF-MT number          : 3 - 1 
# first author          : Harvey 
# institute             : (1USAORL): Oak Ridge National Laboratory, Oak Ridge, TN 
# reference             : (C,79KNOX,,690,197910) 
# year                  : 1979 
# facility              : (LINAC): Linear accelerator 
# git                   : https://github.com/IAEA-NDS/exfor_master/blob/main/exforall/109/10955.x4 
# nds                   : https://nds.iaea.org/EXFOR/10955
#
#       E_in(MeV)         dE_in(MeV)        XS(B)             dXS(B)
        1.1630E-08        3.4890E-11        1.3450E+03        0.0000E+00
        1.5860E-08        4.7580E-11        7.7733E+02        0.0000E+00
        2.2970E-08        6.8910E-11        6.2324E+02        0.0000E+00
        3.2080E-08        9.6240E-11        5.2337E+02        0.0000E+00
        4.0870E-08        1.2261E-10        4.6208E+02        0.0000E+00
        4.9910E-08        1.4973E-10        4.2043E+02        0.0000E+00
        5.9410E-08        1.7823E-10        3.8419E+02        0.0000E+00
        6.8530E-08        2.0559E-10        3.5653E+02        0.0000E+00
        7.7180E-08        2.3154E-10        3.3610E+02        0.0000E+00
        8.6020E-08        2.5806E-10        3.1727E+02        0.0000E+00
        9.4550E-08        2.8365E-10        3.0178E+02        0.0000E+00
        1.0238E-07        3.0714E-10        2.9028E+02        0.0000E+00
        1.1121E-07        3.3363E-10        2.8074E+02        0.0000E+00
        1.2124E-07        3.6372E-10        2.6978E+02        0.0000E+00
        1.2967E-07        3.8901E-10        2.5849E+02        0.0000E+00
        1.3581E-07        4.0743E-10        2.5588E+02        0.0000E+00
        1.4237E-07        4.2711E-10        2.5167E+02        0.0000E+00
        1.4945E-07        4.4835E-10        2.4461E+02        0.0000E+00
        1.5706E-07        4.7118E-10        2.4356E+02        0.0000E+00
        1.6525E-07        4.9575E-10        2.3892E+02        0.0000E+00
        1.7410E-07        5.2230E-10        2.3837E+02        0.0000E+00
        1.8372E-07        5.5116E-10        2.3564E+02        0.0000E+00
        1.9412E-07        5.8236E-10        2.3260E+02        0.0000E+00
        2.0544E-07        6.1632E-10        2.2891E+02        0.0000E+00
        2.1783E-07        6.5349E-10        2.2284E+02        0.0000E+00
        2.3132E-07        6.9396E-10        2.1662E+02        0.0000E+00
        2.4606E-07        7.3818E-10        2.0795E+02        0.0000E+00
        2.6235E-07        7.8705E-10        2.0290E+02        0.0000E+00
        2.8024E-07        8.4072E-10        1.9846E+02        0.0000E+00
        3.0007E-07        9.0021E-10        1.9262E+02        0.0000E+00
        3.2202E-07        9.6606E-10        1.8673E+02        0.0000E+00
        3.4659E-07        1.0398E-09        1.8141E+02        0.0000E+00
        3.7389E-07        1.1217E-09        1.7383E+02        0.0000E+00
        4.0470E-07        1.2141E-09        1.6870E+02        0.0000E+00
        4.3942E-07        1.3183E-09        1.6635E+02        0.0000E+00
        4.7882E-07        1.4365E-09        1.6253E+02        0.0000E+00
        5.2375E-07        1.5713E-09        1.5660E+02        0.0000E+00
        5.7544E-07        1.7263E-09        1.5001E+02        0.0000E+00
        6.1886E-07        1.8566E-09        1.4888E+02        0.0000E+00
        6.5091E-07        1.9527E-09        1.4489E+02        0.0000E+00
        6.8553E-07        2.0566E-09        1.4183E+02        0.0000E+00
        7.2308E-07        2.1692E-09        1.4068E+02        0.0000E+00
        7.6362E-07        2.2909E-09        1.4107E+02        0.0000E+00
        8.0781E-07        2.4234E-09        1.4061E+02        0.0000E+00
        9.0826E-07        2.7248E-09        1.4873E+02        0.0000E+00
        9.5393E-07        2.8618E-09        1.4392E+02        0.0000E+00
        9.6587E-07        2.8976E-09        1.5793E+02        0.0000E+00
        1.0289E-06        3.0867E-09        1.6992E+02        0.0000E+00
        1.0986E-06        3.2957E-09        1.8690E+02        0.0000E+00
        1.1753E-06        3.5260E-09        2.0833E+02        0.0000E+00
        1.2604E-06        3.7812E-09        2.4776E+02        0.0000E+00
        1.3552E-06        4.0655E-09        2.9994E+02        0.0000E+00
        1.4612E-06        4.3836E-09        3.7947E+02        0.0000E+00
        1.5800E-06        4.7401E-09        4.9073E+02        0.0000E+00
        1.7140E-06        5.1419E-09        7.6442E+02        0.0000E+00
        1.8656E-06        5.5969E-09        7.1969E+02        0.0000E+00
        2.0385E-06        6.1155E-09        3.7685E+02        0.0000E+00
        2.2365E-06        6.7094E-09        5.1336E+02        0.0000E+00
        2.4645E-06        7.3936E-09        1.5169E+02        0.0000E+00
        2.7296E-06        8.1888E-09        7.2131E+01        0.0000E+00
        3.0399E-06        9.1198E-09        7.8619E+01        0.0000E+00
        3.4062E-06        1.0219E-08        1.3562E+02        0.0000E+00
        3.8428E-06        1.1528E-08        1.1811E+02        0.0000E+00
