# entry-subent-pointer  : 12324-002-0 
# EXFOR reaction        : ['92-U-233', ['N,TOT'], ',,SIG'] 
# incident energy       : 5.6900e-09 MeV - 1.1000e-07 MeV 
# target                : U-233 
# product               : - 
# level energy          : - 
# MF-MT number          : 3 - 1 
# first author          : H.R.Muether 
# institute             : (1USABNL): Brookhaven National Laboratory, Upton, NY 
# reference             : (W,MUETHER,1955) 
# year                  : 1955 
# facility              : (CHOPS): Slow chopper 
# git                   : https://github.com/IAEA-NDS/exfor_master/blob/main/exforall/123/12324.x4 
# nds                   : https://nds.iaea.org/EXFOR/12324
#
#       E_in(MeV)       dE_in(MeV)            XS(B)           dXS(B)
      5.69000E-09      0.00000E+00      1.25380E+03      0.00000E+00
      6.25000E-09      0.00000E+00      1.23870E+03      0.00000E+00
      6.89000E-09      0.00000E+00      1.17900E+03      0.00000E+00
      7.65000E-09      0.00000E+00      1.10030E+03      0.00000E+00
      8.53000E-09      0.00000E+00      1.03560E+03      0.00000E+00
      9.58000E-09      0.00000E+00      9.78700E+02      0.00000E+00
      1.08000E-08      0.00000E+00      9.23500E+02      0.00000E+00
      1.23000E-08      0.00000E+00      8.60600E+02      0.00000E+00
      1.42000E-08      0.00000E+00      7.87600E+02      0.00000E+00
      1.65000E-08      0.00000E+00      7.38900E+02      0.00000E+00
      1.94000E-08      0.00000E+00      6.79400E+02      0.00000E+00
      2.14000E-08      0.00000E+00      6.53700E+02      0.00000E+00
      2.31000E-08      0.00000E+00      6.20300E+02      0.00000E+00
      2.32000E-08      0.00000E+00      6.21900E+02      0.00000E+00
      2.53000E-08      0.00000E+00      6.00200E+02      0.00000E+00
      2.76000E-08      0.00000E+00      5.70600E+02      0.00000E+00
      3.04000E-08      0.00000E+00      5.44400E+02      0.00000E+00
      3.35000E-08      0.00000E+00      5.19400E+02      0.00000E+00
      3.72000E-08      0.00000E+00      4.92900E+02      0.00000E+00
      4.14000E-08      0.00000E+00      4.58800E+02      0.00000E+00
      4.65000E-08      0.00000E+00      4.14000E+02      0.00000E+00
      5.25000E-08      0.00000E+00      4.14300E+02      0.00000E+00
      5.99000E-08      0.00000E+00      3.87700E+02      0.00000E+00
      6.54000E-08      0.00000E+00      3.63700E+02      0.00000E+00
      6.83000E-08      0.00000E+00      3.62100E+02      0.00000E+00
      6.88000E-08      0.00000E+00      3.60100E+02      0.00000E+00
      7.13000E-08      0.00000E+00      3.40100E+02      0.00000E+00
      7.44000E-08      0.00000E+00      3.38000E+02      0.00000E+00
      7.79000E-08      0.00000E+00      3.36400E+02      0.00000E+00
      8.16000E-08      0.00000E+00      3.25800E+02      0.00000E+00
      8.54000E-08      0.00000E+00      3.21700E+02      0.00000E+00
      8.97000E-08      0.00000E+00      3.10700E+02      0.00000E+00
      9.42000E-08      0.00000E+00      3.06500E+02      0.00000E+00
      9.90000E-08      0.00000E+00      2.97400E+02      0.00000E+00
      1.10000E-07      0.00000E+00      2.87300E+02      0.00000E+00
