# entry-subent-pointer  : 10225-027-0 
# EXFOR reaction        : (92-U-233(N,TOT),,SIG) 
# incident energy       : 8.9910e-01 MeV - 9.8870e+00 MeV 
# target                : U-233 
# product               : - 
# level energy          : - 
# MF-MT number          : 3 - 1 
# first author          : Green 
# institute             : (1USABET): Bettis Atomic Power Laboratory , Westinghouse, Pittsburgh,PA 
# reference             : (R,WAPD-TM-1073,197304) 
# year                  : 1973 
# facility              : None 
# git                   : https://github.com/IAEA-NDS/exfor_master/blob/main/exforall/102/10225.x4 
# nds                   : https://nds.iaea.org/EXFOR/10225
#
#       E_in(MeV)         dE_in(MeV)        XS(B)             dXS(B)
        8.9910E-01        0.0000E+00        6.5980E+00        0.0000E+00
        9.0290E-01        0.0000E+00        6.8730E+00        0.0000E+00
        9.0670E-01        0.0000E+00        7.0440E+00        0.0000E+00
        9.1050E-01        0.0000E+00        6.9530E+00        0.0000E+00
        9.1430E-01        0.0000E+00        6.8690E+00        0.0000E+00
        9.1820E-01        0.0000E+00        7.0330E+00        0.0000E+00
        9.2200E-01        0.0000E+00        6.9750E+00        0.0000E+00
        9.2590E-01        0.0000E+00        6.7730E+00        0.0000E+00
        9.2990E-01        0.0000E+00        7.0130E+00        0.0000E+00
        9.3380E-01        0.0000E+00        6.4770E+00        0.0000E+00
        9.3780E-01        0.0000E+00        7.2320E+00        0.0000E+00
        9.4180E-01        0.0000E+00        6.9630E+00        0.0000E+00
        9.4580E-01        0.0000E+00        6.9350E+00        0.0000E+00
        9.4990E-01        0.0000E+00        6.7320E+00        0.0000E+00
        9.5390E-01        0.0000E+00        6.5510E+00        0.0000E+00
        9.5800E-01        0.0000E+00        6.6280E+00        0.0000E+00
        9.6220E-01        0.0000E+00        7.0870E+00        0.0000E+00
        9.6630E-01        0.0000E+00        6.8610E+00        0.0000E+00
        9.7050E-01        0.0000E+00        6.7100E+00        0.0000E+00
        9.7470E-01        0.0000E+00        7.0410E+00        0.0000E+00
        9.7900E-01        0.0000E+00        6.7250E+00        0.0000E+00
        9.8320E-01        0.0000E+00        6.7330E+00        0.0000E+00
        9.8750E-01        0.0000E+00        6.3570E+00        0.0000E+00
        9.9180E-01        0.0000E+00        7.4650E+00        0.0000E+00
        9.9620E-01        0.0000E+00        6.8120E+00        0.0000E+00
        1.0010E+00        0.0000E+00        7.5070E+00        0.0000E+00
        1.0050E+00        0.0000E+00        6.8340E+00        0.0000E+00
        1.0090E+00        0.0000E+00        6.9110E+00        0.0000E+00
        1.0140E+00        0.0000E+00        6.7440E+00        0.0000E+00
        1.0180E+00        0.0000E+00        6.9170E+00        0.0000E+00
        1.0230E+00        0.0000E+00        6.5800E+00        0.0000E+00
        1.0270E+00        0.0000E+00        7.0890E+00        0.0000E+00
        1.0320E+00        0.0000E+00        6.9040E+00        0.0000E+00
        1.0370E+00        0.0000E+00        6.4790E+00        0.0000E+00
        1.0410E+00        0.0000E+00        6.7100E+00        0.0000E+00
        1.0460E+00        0.0000E+00        6.8660E+00        0.0000E+00
        1.0510E+00        0.0000E+00        6.5320E+00        0.0000E+00
        1.0550E+00        0.0000E+00        6.9100E+00        0.0000E+00
        1.0600E+00        0.0000E+00        6.7250E+00        0.0000E+00
        1.0650E+00        0.0000E+00        6.6050E+00        0.0000E+00
        1.0700E+00        0.0000E+00        6.8730E+00        0.0000E+00
        1.0750E+00        0.0000E+00        6.8540E+00        0.0000E+00
        1.0800E+00        0.0000E+00        6.5300E+00        0.0000E+00
        1.0850E+00        0.0000E+00        6.6410E+00        0.0000E+00
        1.0900E+00        0.0000E+00        7.0140E+00        0.0000E+00
        1.0950E+00        0.0000E+00        7.0150E+00        0.0000E+00
        1.1000E+00        0.0000E+00        6.6370E+00        0.0000E+00
        1.1050E+00        0.0000E+00        6.9360E+00        0.0000E+00
        1.1100E+00        0.0000E+00        7.0800E+00        0.0000E+00
        1.1150E+00        0.0000E+00        6.4730E+00        0.0000E+00
        1.1200E+00        0.0000E+00        6.2740E+00        0.0000E+00
        1.1250E+00        0.0000E+00        6.6910E+00        0.0000E+00
        1.1310E+00        0.0000E+00        6.5310E+00        0.0000E+00
        1.1360E+00        0.0000E+00        6.8290E+00        0.0000E+00
        1.1410E+00        0.0000E+00        6.7700E+00        0.0000E+00
        1.1470E+00        0.0000E+00        6.6700E+00        0.0000E+00
        1.1520E+00        0.0000E+00        6.6560E+00        0.0000E+00
        1.1580E+00        0.0000E+00        6.8640E+00        0.0000E+00
        1.1630E+00        0.0000E+00        6.8530E+00        0.0000E+00
        1.1690E+00        0.0000E+00        7.0690E+00        0.0000E+00
        1.1740E+00        0.0000E+00        7.0970E+00        0.0000E+00
        1.1800E+00        0.0000E+00        6.4630E+00        0.0000E+00
        1.1850E+00        0.0000E+00        6.8200E+00        0.0000E+00
        1.1910E+00        0.0000E+00        6.4550E+00        0.0000E+00
        1.1970E+00        0.0000E+00        7.0470E+00        0.0000E+00
        1.2030E+00        0.0000E+00        6.9700E+00        0.0000E+00
        1.2080E+00        0.0000E+00        6.8310E+00        0.0000E+00
        1.2140E+00        0.0000E+00        7.1120E+00        0.0000E+00
        1.2200E+00        0.0000E+00        7.1750E+00        0.0000E+00
        1.2260E+00        0.0000E+00        6.8660E+00        0.0000E+00
        1.2320E+00        0.0000E+00        6.9100E+00        0.0000E+00
        1.2380E+00        0.0000E+00        6.7000E+00        0.0000E+00
        1.2440E+00        0.0000E+00        6.9310E+00        0.0000E+00
        1.2500E+00        0.0000E+00        7.1460E+00        0.0000E+00
        1.2560E+00        0.0000E+00        6.5490E+00        0.0000E+00
        1.2630E+00        0.0000E+00        6.7540E+00        0.0000E+00
        1.2690E+00        0.0000E+00        6.7570E+00        0.0000E+00
        1.2750E+00        0.0000E+00        6.6760E+00        0.0000E+00
        1.2820E+00        0.0000E+00        6.5440E+00        0.0000E+00
        1.2880E+00        0.0000E+00        6.9260E+00        0.0000E+00
        1.2940E+00        0.0000E+00        6.6450E+00        0.0000E+00
        1.3010E+00        0.0000E+00        6.6640E+00        0.0000E+00
        1.3070E+00        0.0000E+00        6.5840E+00        0.0000E+00
        1.3140E+00        0.0000E+00        6.8670E+00        0.0000E+00
        1.3210E+00        0.0000E+00        7.2760E+00        0.0000E+00
        1.3270E+00        0.0000E+00        6.8070E+00        0.0000E+00
        1.3340E+00        0.0000E+00        6.4810E+00        0.0000E+00
        1.3410E+00        0.0000E+00        7.0530E+00        0.0000E+00
        1.3480E+00        0.0000E+00        6.7370E+00        0.0000E+00
        1.3550E+00        0.0000E+00        6.7360E+00        0.0000E+00
        1.3620E+00        0.0000E+00        6.5960E+00        0.0000E+00
        1.3690E+00        0.0000E+00        6.8390E+00        0.0000E+00
        1.3760E+00        0.0000E+00        6.8250E+00        0.0000E+00
        1.3830E+00        0.0000E+00        6.5330E+00        0.0000E+00
        1.3900E+00        0.0000E+00        6.7930E+00        0.0000E+00
        1.3970E+00        0.0000E+00        6.8040E+00        0.0000E+00
        1.4040E+00        0.0000E+00        7.1230E+00        0.0000E+00
        1.4120E+00        0.0000E+00        6.7180E+00        0.0000E+00
        1.4190E+00        0.0000E+00        6.9250E+00        0.0000E+00
        1.4270E+00        0.0000E+00        6.8290E+00        0.0000E+00
        1.4340E+00        0.0000E+00        7.1230E+00        0.0000E+00
        1.4420E+00        0.0000E+00        7.1350E+00        0.0000E+00
        1.4490E+00        0.0000E+00        6.9640E+00        0.0000E+00
        1.4570E+00        0.0000E+00        7.0490E+00        0.0000E+00
        1.4650E+00        0.0000E+00        6.8480E+00        0.0000E+00
        1.4730E+00        0.0000E+00        7.0220E+00        0.0000E+00
        1.4800E+00        0.0000E+00        6.8800E+00        0.0000E+00
        1.4880E+00        0.0000E+00        6.6750E+00        0.0000E+00
        1.4960E+00        0.0000E+00        7.0170E+00        0.0000E+00
        1.5040E+00        0.0000E+00        6.9960E+00        0.0000E+00
        1.5130E+00        0.0000E+00        6.8900E+00        0.0000E+00
        1.5210E+00        0.0000E+00        6.7920E+00        0.0000E+00
        1.5290E+00        0.0000E+00        7.1180E+00        0.0000E+00
        1.5370E+00        0.0000E+00        6.8350E+00        0.0000E+00
        1.5460E+00        0.0000E+00        6.7740E+00        0.0000E+00
        1.5540E+00        0.0000E+00        6.8380E+00        0.0000E+00
        1.5630E+00        0.0000E+00        6.7870E+00        0.0000E+00
        1.5710E+00        0.0000E+00        6.9490E+00        0.0000E+00
        1.5800E+00        0.0000E+00        6.8540E+00        0.0000E+00
        1.5890E+00        0.0000E+00        7.1090E+00        0.0000E+00
        1.5980E+00        0.0000E+00        7.1920E+00        0.0000E+00
        1.6070E+00        0.0000E+00        6.7740E+00        0.0000E+00
        1.6160E+00        0.0000E+00        7.0910E+00        0.0000E+00
        1.6250E+00        0.0000E+00        6.7210E+00        0.0000E+00
        1.6340E+00        0.0000E+00        6.9780E+00        0.0000E+00
        1.6430E+00        0.0000E+00        7.2500E+00        0.0000E+00
        1.6520E+00        0.0000E+00        6.8110E+00        0.0000E+00
        1.6620E+00        0.0000E+00        6.7460E+00        0.0000E+00
        1.6710E+00        0.0000E+00        7.2040E+00        0.0000E+00
        1.6810E+00        0.0000E+00        6.8700E+00        0.0000E+00
        1.6900E+00        0.0000E+00        6.9520E+00        0.0000E+00
        1.7000E+00        0.0000E+00        7.0740E+00        0.0000E+00
        1.7100E+00        0.0000E+00        6.9670E+00        0.0000E+00
        1.7200E+00        0.0000E+00        6.9500E+00        0.0000E+00
        1.7300E+00        0.0000E+00        6.7590E+00        0.0000E+00
        1.7400E+00        0.0000E+00        7.3470E+00        0.0000E+00
        1.7500E+00        0.0000E+00        6.8820E+00        0.0000E+00
        1.7600E+00        0.0000E+00        6.8830E+00        0.0000E+00
        1.7700E+00        0.0000E+00        7.1610E+00        0.0000E+00
        1.7810E+00        0.0000E+00        7.2290E+00        0.0000E+00
        1.7910E+00        0.0000E+00        7.2410E+00        0.0000E+00
        1.8020E+00        0.0000E+00        7.3990E+00        0.0000E+00
        1.8120E+00        0.0000E+00        7.4650E+00        0.0000E+00
        1.8230E+00        0.0000E+00        7.0860E+00        0.0000E+00
        1.8340E+00        0.0000E+00        7.0270E+00        0.0000E+00
        1.8450E+00        0.0000E+00        7.2670E+00        0.0000E+00
        1.8560E+00        0.0000E+00        7.0990E+00        0.0000E+00
        1.8670E+00        0.0000E+00        7.2540E+00        0.0000E+00
        1.8780E+00        0.0000E+00        7.1060E+00        0.0000E+00
        1.8900E+00        0.0000E+00        7.3840E+00        0.0000E+00
        1.9010E+00        0.0000E+00        7.3560E+00        0.0000E+00
        1.9130E+00        0.0000E+00        7.4820E+00        0.0000E+00
        1.9250E+00        0.0000E+00        7.4420E+00        0.0000E+00
        1.9360E+00        0.0000E+00        7.1980E+00        0.0000E+00
        1.9480E+00        0.0000E+00        6.9540E+00        0.0000E+00
        1.9600E+00        0.0000E+00        7.4910E+00        0.0000E+00
        1.9720E+00        0.0000E+00        7.2400E+00        0.0000E+00
        1.9850E+00        0.0000E+00        7.3770E+00        0.0000E+00
        1.9970E+00        0.0000E+00        7.3040E+00        0.0000E+00
        2.0090E+00        0.0000E+00        7.5940E+00        0.0000E+00
        2.0220E+00        0.0000E+00        7.0010E+00        0.0000E+00
        2.0350E+00        0.0000E+00        7.3010E+00        0.0000E+00
        2.0470E+00        0.0000E+00        7.2610E+00        0.0000E+00
        2.0600E+00        0.0000E+00        7.7190E+00        0.0000E+00
        2.0730E+00        0.0000E+00        7.1350E+00        0.0000E+00
        2.0870E+00        0.0000E+00        7.7600E+00        0.0000E+00
        2.1000E+00        0.0000E+00        7.3710E+00        0.0000E+00
        2.1130E+00        0.0000E+00        7.3710E+00        0.0000E+00
        2.1270E+00        0.0000E+00        7.6390E+00        0.0000E+00
        2.1410E+00        0.0000E+00        7.3210E+00        0.0000E+00
        2.1540E+00        0.0000E+00        7.3340E+00        0.0000E+00
        2.1680E+00        0.0000E+00        7.3850E+00        0.0000E+00
        2.1830E+00        0.0000E+00        7.2390E+00        0.0000E+00
        2.1970E+00        0.0000E+00        7.6110E+00        0.0000E+00
        2.2110E+00        0.0000E+00        7.5730E+00        0.0000E+00
        2.2260E+00        0.0000E+00        7.4590E+00        0.0000E+00
        2.2400E+00        0.0000E+00        7.0740E+00        0.0000E+00
        2.2550E+00        0.0000E+00        7.8320E+00        0.0000E+00
        2.2700E+00        0.0000E+00        7.4070E+00        0.0000E+00
        2.2850E+00        0.0000E+00        7.4590E+00        0.0000E+00
        2.3000E+00        0.0000E+00        7.4420E+00        0.0000E+00
        2.3160E+00        0.0000E+00        7.8790E+00        0.0000E+00
        2.3310E+00        0.0000E+00        7.7630E+00        0.0000E+00
        2.3470E+00        0.0000E+00        7.7940E+00        0.0000E+00
        2.3630E+00        0.0000E+00        7.9530E+00        0.0000E+00
        2.3790E+00        0.0000E+00        7.5170E+00        0.0000E+00
        2.3950E+00        0.0000E+00        7.4680E+00        0.0000E+00
        2.4120E+00        0.0000E+00        7.5440E+00        0.0000E+00
        2.4280E+00        0.0000E+00        7.5690E+00        0.0000E+00
        2.4450E+00        0.0000E+00        7.7060E+00        0.0000E+00
        2.4620E+00        0.0000E+00        7.3430E+00        0.0000E+00
        2.4790E+00        0.0000E+00        7.5130E+00        0.0000E+00
        2.4960E+00        0.0000E+00        7.8680E+00        0.0000E+00
        2.5140E+00        0.0000E+00        7.9180E+00        0.0000E+00
        2.5310E+00        0.0000E+00        7.7570E+00        0.0000E+00
        2.5490E+00        0.0000E+00        7.6210E+00        0.0000E+00
        2.5670E+00        0.0000E+00        7.7700E+00        0.0000E+00
        2.5850E+00        0.0000E+00        7.9260E+00        0.0000E+00
        2.6040E+00        0.0000E+00        7.8360E+00        0.0000E+00
        2.6220E+00        0.0000E+00        7.8750E+00        0.0000E+00
        2.6410E+00        0.0000E+00        8.2410E+00        0.0000E+00
        2.6600E+00        0.0000E+00        8.0500E+00        0.0000E+00
        2.6790E+00        0.0000E+00        7.8300E+00        0.0000E+00
        2.6980E+00        0.0000E+00        8.0980E+00        0.0000E+00
        2.7180E+00        0.0000E+00        7.8070E+00        0.0000E+00
        2.7380E+00        0.0000E+00        8.0170E+00        0.0000E+00
        2.7580E+00        0.0000E+00        7.7190E+00        0.0000E+00
        2.7780E+00        0.0000E+00        7.9270E+00        0.0000E+00
        2.7990E+00        0.0000E+00        7.9400E+00        0.0000E+00
        2.8190E+00        0.0000E+00        7.6640E+00        0.0000E+00
        2.8400E+00        0.0000E+00        7.9470E+00        0.0000E+00
        2.8610E+00        0.0000E+00        7.9260E+00        0.0000E+00
        2.8830E+00        0.0000E+00        8.2210E+00        0.0000E+00
        2.9040E+00        0.0000E+00        8.2400E+00        0.0000E+00
        2.9260E+00        0.0000E+00        7.8740E+00        0.0000E+00
        2.9480E+00        0.0000E+00        8.0020E+00        0.0000E+00
        2.9710E+00        0.0000E+00        8.1500E+00        0.0000E+00
        2.9930E+00        0.0000E+00        7.9330E+00        0.0000E+00
        3.0160E+00        0.0000E+00        7.8700E+00        0.0000E+00
        3.0390E+00        0.0000E+00        8.0110E+00        0.0000E+00
        3.0630E+00        0.0000E+00        8.1700E+00        0.0000E+00
        3.0870E+00        0.0000E+00        8.0730E+00        0.0000E+00
        3.1110E+00        0.0000E+00        7.8830E+00        0.0000E+00
        3.1350E+00        0.0000E+00        7.9510E+00        0.0000E+00
        3.1590E+00        0.0000E+00        7.8880E+00        0.0000E+00
        3.1840E+00        0.0000E+00        8.0560E+00        0.0000E+00
        3.2090E+00        0.0000E+00        7.9340E+00        0.0000E+00
        3.2350E+00        0.0000E+00        8.1080E+00        0.0000E+00
        3.2610E+00        0.0000E+00        8.4020E+00        0.0000E+00
        3.2870E+00        0.0000E+00        7.8760E+00        0.0000E+00
        3.3130E+00        0.0000E+00        7.8580E+00        0.0000E+00
        3.3400E+00        0.0000E+00        7.9600E+00        0.0000E+00
        3.3670E+00        0.0000E+00        8.3560E+00        0.0000E+00
        3.3940E+00        0.0000E+00        8.2920E+00        0.0000E+00
        3.4220E+00        0.0000E+00        8.1860E+00        0.0000E+00
        3.4500E+00        0.0000E+00        8.4990E+00        0.0000E+00
        3.4780E+00        0.0000E+00        8.1300E+00        0.0000E+00
        3.5070E+00        0.0000E+00        8.0240E+00        0.0000E+00
        3.5360E+00        0.0000E+00        8.0670E+00        0.0000E+00
        3.5650E+00        0.0000E+00        8.2050E+00        0.0000E+00
        3.5950E+00        0.0000E+00        8.3900E+00        0.0000E+00
        3.6250E+00        0.0000E+00        8.1410E+00        0.0000E+00
        3.6560E+00        0.0000E+00        7.7520E+00        0.0000E+00
        3.6870E+00        0.0000E+00        8.0120E+00        0.0000E+00
        3.7180E+00        0.0000E+00        7.9620E+00        0.0000E+00
        3.7500E+00        0.0000E+00        8.2490E+00        0.0000E+00
        3.7820E+00        0.0000E+00        8.0130E+00        0.0000E+00
        3.8150E+00        0.0000E+00        8.2550E+00        0.0000E+00
        3.8480E+00        0.0000E+00        7.9630E+00        0.0000E+00
        3.8810E+00        0.0000E+00        8.4900E+00        0.0000E+00
        3.9150E+00        0.0000E+00        7.9700E+00        0.0000E+00
        3.9490E+00        0.0000E+00        8.1480E+00        0.0000E+00
        3.9840E+00        0.0000E+00        8.1600E+00        0.0000E+00
        4.0190E+00        0.0000E+00        8.1290E+00        0.0000E+00
        4.0550E+00        0.0000E+00        8.0200E+00        0.0000E+00
        4.0910E+00        0.0000E+00        8.2940E+00        0.0000E+00
        4.1280E+00        0.0000E+00        8.0360E+00        0.0000E+00
        4.1650E+00        0.0000E+00        8.3370E+00        0.0000E+00
        4.2030E+00        0.0000E+00        8.2100E+00        0.0000E+00
        4.2410E+00        0.0000E+00        8.0080E+00        0.0000E+00
        4.2790E+00        0.0000E+00        7.9960E+00        0.0000E+00
        4.3190E+00        0.0000E+00        7.8120E+00        0.0000E+00
        4.3590E+00        0.0000E+00        7.9830E+00        0.0000E+00
        4.3990E+00        0.0000E+00        8.2410E+00        0.0000E+00
        4.4400E+00        0.0000E+00        8.0880E+00        0.0000E+00
        4.4810E+00        0.0000E+00        8.0840E+00        0.0000E+00
        4.5230E+00        0.0000E+00        7.6610E+00        0.0000E+00
        4.5660E+00        0.0000E+00        7.7540E+00        0.0000E+00
        4.6090E+00        0.0000E+00        7.8420E+00        0.0000E+00
        4.6530E+00        0.0000E+00        8.0180E+00        0.0000E+00
        4.6980E+00        0.0000E+00        7.9810E+00        0.0000E+00
        4.7430E+00        0.0000E+00        8.0010E+00        0.0000E+00
        4.7890E+00        0.0000E+00        7.9990E+00        0.0000E+00
        4.8350E+00        0.0000E+00        8.0920E+00        0.0000E+00
        4.8820E+00        0.0000E+00        7.7650E+00        0.0000E+00
        4.9300E+00        0.0000E+00        7.5320E+00        0.0000E+00
        4.9790E+00        0.0000E+00        7.7870E+00        0.0000E+00
        5.0280E+00        0.0000E+00        7.6990E+00        0.0000E+00
        5.0780E+00        0.0000E+00        7.4290E+00        0.0000E+00
        5.1290E+00        0.0000E+00        7.4210E+00        0.0000E+00
        5.1800E+00        0.0000E+00        7.6900E+00        0.0000E+00
        5.2330E+00        0.0000E+00        7.5160E+00        0.0000E+00
        5.2860E+00        0.0000E+00        7.4800E+00        0.0000E+00
        5.3400E+00        0.0000E+00        7.2710E+00        0.0000E+00
        5.3940E+00        0.0000E+00        7.5690E+00        0.0000E+00
        5.4500E+00        0.0000E+00        7.4320E+00        0.0000E+00
        5.5070E+00        0.0000E+00        7.7980E+00        0.0000E+00
        5.5640E+00        0.0000E+00        7.4340E+00        0.0000E+00
        5.6220E+00        0.0000E+00        7.2610E+00        0.0000E+00
        5.6810E+00        0.0000E+00        7.1550E+00        0.0000E+00
        5.7420E+00        0.0000E+00        7.3850E+00        0.0000E+00
        5.8030E+00        0.0000E+00        7.3420E+00        0.0000E+00
        5.8650E+00        0.0000E+00        7.3590E+00        0.0000E+00
        5.9280E+00        0.0000E+00        7.7310E+00        0.0000E+00
        5.9920E+00        0.0000E+00        6.5160E+00        0.0000E+00
        6.0570E+00        0.0000E+00        7.6300E+00        0.0000E+00
        6.1240E+00        0.0000E+00        7.0880E+00        0.0000E+00
        6.1910E+00        0.0000E+00        7.5800E+00        0.0000E+00
        6.2590E+00        0.0000E+00        7.0740E+00        0.0000E+00
        6.3290E+00        0.0000E+00        7.4660E+00        0.0000E+00
        6.4000E+00        0.0000E+00        6.9770E+00        0.0000E+00
        6.4720E+00        0.0000E+00        7.0050E+00        0.0000E+00
        6.5450E+00        0.0000E+00        6.7950E+00        0.0000E+00
        6.6190E+00        0.0000E+00        6.2450E+00        0.0000E+00
        6.6950E+00        0.0000E+00        6.7060E+00        0.0000E+00
        6.7720E+00        0.0000E+00        6.4870E+00        0.0000E+00
        6.8510E+00        0.0000E+00        6.2570E+00        0.0000E+00
        6.9300E+00        0.0000E+00        6.3740E+00        0.0000E+00
        7.0120E+00        0.0000E+00        6.1650E+00        0.0000E+00
        7.0940E+00        0.0000E+00        6.7440E+00        0.0000E+00
        7.1780E+00        0.0000E+00        7.5190E+00        0.0000E+00
        7.2640E+00        0.0000E+00        6.9110E+00        0.0000E+00
        7.3510E+00        0.0000E+00        6.2400E+00        0.0000E+00
        7.4400E+00        0.0000E+00        6.4690E+00        0.0000E+00
        7.5300E+00        0.0000E+00        5.6190E+00        0.0000E+00
        7.6220E+00        0.0000E+00        5.8650E+00        0.0000E+00
        7.7160E+00        0.0000E+00        6.3440E+00        0.0000E+00
        7.8120E+00        0.0000E+00        7.0950E+00        0.0000E+00
        7.9090E+00        0.0000E+00        6.0310E+00        0.0000E+00
        8.0080E+00        0.0000E+00        5.8570E+00        0.0000E+00
        8.1090E+00        0.0000E+00        6.0010E+00        0.0000E+00
        8.2120E+00        0.0000E+00        6.3780E+00        0.0000E+00
        8.3170E+00        0.0000E+00        6.4930E+00        0.0000E+00
        8.4240E+00        0.0000E+00        6.4000E+00        0.0000E+00
        8.5330E+00        0.0000E+00        5.5730E+00        0.0000E+00
        8.6440E+00        0.0000E+00        6.3480E+00        0.0000E+00
        8.7570E+00        0.0000E+00        6.4580E+00        0.0000E+00
        8.8730E+00        0.0000E+00        5.5560E+00        0.0000E+00
        8.9910E+00        0.0000E+00        6.0760E+00        0.0000E+00
        9.1110E+00        0.0000E+00        5.2200E+00        0.0000E+00
        9.2340E+00        0.0000E+00        6.2950E+00        0.0000E+00
        9.3590E+00        0.0000E+00        6.9640E+00        0.0000E+00
        9.4870E+00        0.0000E+00        5.3280E+00        0.0000E+00
        9.6180E+00        0.0000E+00        6.5500E+00        0.0000E+00
        9.7510E+00        0.0000E+00        5.0700E+00        0.0000E+00
        9.8870E+00        0.0000E+00        4.6870E+00        0.0000E+00
