# entry-subent-pointer  : 10325-002-0 
# EXFOR reaction        : (41-NB-93(N,TOT),,SIG,,AV) 
# incident energy       : 2.7200e-01 MeV - 5.0000e+00 MeV 
# target                : Nb-93 
# product               : - 
# level energy          : - 
# MF-MT number          : 3 - 1 
# first author          : Smith 
# institute             : (1USAANL): Argonne National Laboratory, Argonne, IL 
# reference             : (J,ZP,264,379,1973) 
# year                  : 1973 
# facility              : (DYNAM): Dynamitron 
# git                   : https://github.com/IAEA-NDS/exfor_master/blob/main/exforall/103/10325.x4 
# nds                   : https://nds.iaea.org/EXFOR/10325
#
#       E_in(MeV)         dE_in(MeV)        XS(B)             dXS(B)
        2.7200E-01        0.0000E+00        9.8055E+00        0.0000E+00
        2.9700E-01        0.0000E+00        1.0128E+01        0.0000E+00
        3.2200E-01        0.0000E+00        9.0852E+00        0.0000E+00
        3.4800E-01        0.0000E+00        9.3042E+00        0.0000E+00
        3.7100E-01        0.0000E+00        8.6812E+00        0.0000E+00
        3.9700E-01        0.0000E+00        8.4340E+00        0.0000E+00
        4.2200E-01        0.0000E+00        8.6233E+00        0.0000E+00
        4.4700E-01        0.0000E+00        8.5194E+00        0.0000E+00
        4.7200E-01        0.0000E+00        8.1689E+00        0.0000E+00
        6.2100E-01        0.0000E+00        7.6116E+00        0.0000E+00
        6.4500E-01        0.0000E+00        7.7384E+00        0.0000E+00
        6.7100E-01        0.0000E+00        7.4097E+00        0.0000E+00
        6.8600E-01        0.0000E+00        7.1978E+00        0.0000E+00
        6.9600E-01        0.0000E+00        7.3053E+00        0.0000E+00
        7.1100E-01        0.0000E+00        7.4220E+00        0.0000E+00
        7.2100E-01        0.0000E+00        7.4871E+00        0.0000E+00
        7.3600E-01        0.0000E+00        7.1706E+00        0.0000E+00
        7.4400E-01        0.0000E+00        7.0980E+00        0.0000E+00
        7.6000E-01        0.0000E+00        6.8160E+00        0.0000E+00
        7.8500E-01        0.0000E+00        6.8929E+00        0.0000E+00
        8.1320E-01        0.0000E+00        6.9541E+00        0.0000E+00
        8.3400E-01        0.0000E+00        6.5625E+00        0.0000E+00
        8.4400E-01        0.0000E+00        6.9097E+00        0.0000E+00
        8.5900E-01        0.0000E+00        6.5056E+00        0.0000E+00
        8.6800E-01        0.0000E+00        6.9171E+00        0.0000E+00
        8.8400E-01        0.0000E+00        6.5836E+00        0.0000E+00
        9.3300E-01        0.0000E+00        6.4100E+00        0.0000E+00
        9.4300E-01        0.0000E+00        6.4778E+00        0.0000E+00
        9.5800E-01        0.0000E+00        6.4157E+00        0.0000E+00
        9.6800E-01        0.0000E+00        6.7313E+00        0.0000E+00
        9.8200E-01        0.0000E+00        6.3999E+00        0.0000E+00
        9.9300E-01        0.0000E+00        6.4845E+00        0.0000E+00
        1.0070E+00        0.0000E+00        6.2285E+00        0.0000E+00
        1.0170E+00        0.0000E+00        6.3230E+00        0.0000E+00
        1.0570E+00        0.0000E+00        6.2654E+00        0.0000E+00
        1.0660E+00        0.0000E+00        6.1106E+00        0.0000E+00
        1.0830E+00        0.0000E+00        5.9190E+00        0.0000E+00
        1.0910E+00        0.0000E+00        6.0395E+00        0.0000E+00
        1.1070E+00        0.0000E+00        5.9602E+00        0.0000E+00
        1.1170E+00        0.0000E+00        6.1217E+00        0.0000E+00
        1.1310E+00        0.0000E+00        6.1882E+00        0.0000E+00
        1.1410E+00        0.0000E+00        5.9182E+00        0.0000E+00
        1.1550E+00        0.0000E+00        5.8603E+00        0.0000E+00
        1.1670E+00        0.0000E+00        6.0434E+00        0.0000E+00
        1.1790E+00        0.0000E+00        5.9311E+00        0.0000E+00
        1.1900E+00        0.0000E+00        6.2185E+00        0.0000E+00
        1.2090E+00        0.0000E+00        5.8935E+00        0.0000E+00
        1.2150E+00        0.0000E+00        5.7689E+00        0.0000E+00
        1.2290E+00        0.0000E+00        5.7547E+00        0.0000E+00
        1.2400E+00        0.0000E+00        5.8732E+00        0.0000E+00
        1.2550E+00        0.0000E+00        5.8780E+00        0.0000E+00
        1.2650E+00        0.0000E+00        5.5496E+00        0.0000E+00
        1.2890E+00        0.0000E+00        5.6840E+00        0.0000E+00
        1.3150E+00        0.0000E+00        5.6033E+00        0.0000E+00
        1.3400E+00        0.0000E+00        5.6271E+00        0.0000E+00
        1.3630E+00        0.0000E+00        5.4432E+00        0.0000E+00
        1.3880E+00        0.0000E+00        5.2562E+00        0.0000E+00
        1.4130E+00        0.0000E+00        5.4469E+00        0.0000E+00
        1.4380E+00        0.0000E+00        5.3317E+00        0.0000E+00
        1.4630E+00        0.0000E+00        5.1952E+00        0.0000E+00
        1.4870E+00        0.0000E+00        5.2921E+00        0.0000E+00
        1.5120E+00        0.0000E+00        5.2175E+00        0.0000E+00
        1.5360E+00        0.0000E+00        5.3928E+00        0.0000E+00
        1.5620E+00        0.0000E+00        5.1755E+00        0.0000E+00
        1.5860E+00        0.0000E+00        5.0756E+00        0.0000E+00
        1.6120E+00        0.0000E+00        5.2268E+00        0.0000E+00
        1.6360E+00        0.0000E+00        4.9644E+00        0.0000E+00
        1.7000E+00        0.0000E+00        4.9082E+00        0.0000E+00
        1.7500E+00        0.0000E+00        5.0252E+00        0.0000E+00
        1.8000E+00        0.0000E+00        4.8803E+00        0.0000E+00
        1.8500E+00        0.0000E+00        4.9000E+00        0.0000E+00
        1.9000E+00        0.0000E+00        5.0060E+00        0.0000E+00
        1.9500E+00        0.0000E+00        4.8067E+00        0.0000E+00
        2.0250E+00        0.0000E+00        4.8023E+00        0.0000E+00
        2.0800E+00        0.0000E+00        4.5789E+00        0.0000E+00
        2.1000E+00        0.0000E+00        4.5639E+00        0.0000E+00
        2.1500E+00        0.0000E+00        4.6670E+00        0.0000E+00
        2.2000E+00        0.0000E+00        4.6641E+00        0.0000E+00
        2.2500E+00        0.0000E+00        4.8722E+00        0.0000E+00
        2.3000E+00        0.0000E+00        4.4272E+00        0.0000E+00
        2.3500E+00        0.0000E+00        4.3699E+00        0.0000E+00
        2.4000E+00        0.0000E+00        4.4117E+00        0.0000E+00
        2.4500E+00        0.0000E+00        4.4716E+00        0.0000E+00
        2.5000E+00        0.0000E+00        4.1968E+00        0.0000E+00
        2.5250E+00        0.0000E+00        4.3720E+00        0.0000E+00
        2.5500E+00        0.0000E+00        4.4085E+00        0.0000E+00
        2.6000E+00        0.0000E+00        4.3595E+00        0.0000E+00
        2.6250E+00        0.0000E+00        4.1455E+00        0.0000E+00
        2.6500E+00        0.0000E+00        4.3902E+00        0.0000E+00
        2.7000E+00        0.0000E+00        4.3495E+00        0.0000E+00
        2.7250E+00        0.0000E+00        4.2618E+00        0.0000E+00
        2.7500E+00        0.0000E+00        3.9561E+00        0.0000E+00
        2.8000E+00        0.0000E+00        3.9901E+00        0.0000E+00
        2.8217E+00        0.0000E+00        4.0659E+00        0.0000E+00
        2.8300E+00        0.0000E+00        3.9775E+00        0.0000E+00
        2.8500E+00        0.0000E+00        3.8641E+00        0.0000E+00
        2.9000E+00        0.0000E+00        4.1080E+00        0.0000E+00
        2.9250E+00        0.0000E+00        3.9577E+00        0.0000E+00
        2.9500E+00        0.0000E+00        4.0865E+00        0.0000E+00
        3.0000E+00        0.0000E+00        4.0305E+00        0.0000E+00
        3.0250E+00        0.0000E+00        3.9318E+00        0.0000E+00
        3.0500E+00        0.0000E+00        3.9533E+00        0.0000E+00
        3.1000E+00        0.0000E+00        3.9248E+00        0.0000E+00
        3.1250E+00        0.0000E+00        3.7340E+00        0.0000E+00
        3.1500E+00        0.0000E+00        3.8881E+00        0.0000E+00
        3.2000E+00        0.0000E+00        3.6569E+00        0.0000E+00
        3.2250E+00        0.0000E+00        3.5649E+00        0.0000E+00
        3.2500E+00        0.0000E+00        3.8475E+00        0.0000E+00
        3.3000E+00        0.0000E+00        3.7496E+00        0.0000E+00
        3.3250E+00        0.0000E+00        3.5595E+00        0.0000E+00
        3.3500E+00        0.0000E+00        3.8495E+00        0.0000E+00
        3.4000E+00        0.0000E+00        3.6945E+00        0.0000E+00
        3.4250E+00        0.0000E+00        3.5524E+00        0.0000E+00
        3.4500E+00        0.0000E+00        3.7483E+00        0.0000E+00
        3.5000E+00        0.0000E+00        3.9124E+00        0.0000E+00
        3.5250E+00        0.0000E+00        3.4082E+00        0.0000E+00
        3.5500E+00        0.0000E+00        3.7141E+00        0.0000E+00
        3.6000E+00        0.0000E+00        3.7728E+00        0.0000E+00
        3.6250E+00        0.0000E+00        3.6124E+00        0.0000E+00
        3.6500E+00        0.0000E+00        3.5297E+00        0.0000E+00
        3.7000E+00        0.0000E+00        3.5567E+00        0.0000E+00
        3.7500E+00        0.0000E+00        3.8508E+00        0.0000E+00
        3.8000E+00        0.0000E+00        3.7213E+00        0.0000E+00
        3.8500E+00        0.0000E+00        3.6968E+00        0.0000E+00
        3.9000E+00        0.0000E+00        3.6170E+00        0.0000E+00
        3.9500E+00        0.0000E+00        3.5575E+00        0.0000E+00
        4.0000E+00        0.0000E+00        3.7320E+00        0.0000E+00
        4.0500E+00        0.0000E+00        3.5996E+00        0.0000E+00
        4.1000E+00        0.0000E+00        3.6669E+00        0.0000E+00
        4.1500E+00        0.0000E+00        3.5999E+00        0.0000E+00
        4.2000E+00        0.0000E+00        3.7592E+00        0.0000E+00
        4.2500E+00        0.0000E+00        3.5058E+00        0.0000E+00
        4.3000E+00        0.0000E+00        3.6095E+00        0.0000E+00
        4.3500E+00        0.0000E+00        3.5760E+00        0.0000E+00
        4.4000E+00        0.0000E+00        3.6042E+00        0.0000E+00
        4.4500E+00        0.0000E+00        3.5807E+00        0.0000E+00
        4.5000E+00        0.0000E+00        3.6209E+00        0.0000E+00
        4.5500E+00        0.0000E+00        3.7363E+00        0.0000E+00
        4.6000E+00        0.0000E+00        3.6282E+00        0.0000E+00
        4.6500E+00        0.0000E+00        3.6608E+00        0.0000E+00
        4.7000E+00        0.0000E+00        3.3392E+00        0.0000E+00
        4.7500E+00        0.0000E+00        3.6051E+00        0.0000E+00
        4.8000E+00        0.0000E+00        3.5457E+00        0.0000E+00
        4.8500E+00        0.0000E+00        3.5144E+00        0.0000E+00
        4.9000E+00        0.0000E+00        3.5767E+00        0.0000E+00
        5.0000E+00        0.0000E+00        3.6382E+00        0.0000E+00
