# entry-subent-pointer  : 10225-009-0 
# EXFOR reaction        : (41-NB-93(N,TOT),,SIG) 
# incident energy       : 4.9310e-01 MeV - 9.6260e+00 MeV 
# target                : Nb-93 
# product               : - 
# level energy          : - 
# MF-MT number          : 3 - 1 
# first author          : Green 
# institute             : (1USABET): Bettis Atomic Power Laboratory , Westinghouse, Pittsburgh,PA 
# reference             : (R,WAPD-TM-1073,197304) 
# year                  : 1973 
# facility              : None 
# git                   : https://github.com/IAEA-NDS/exfor_master/blob/main/exforall/102/10225.x4 
# nds                   : https://nds.iaea.org/EXFOR/10225
#
#       E_in(MeV)         dE_in(MeV)        XS(B)             dXS(B)
        4.9310E-01        0.0000E+00        7.5200E+00        0.0000E+00
        4.9510E-01        0.0000E+00        7.4570E+00        0.0000E+00
        4.9720E-01        0.0000E+00        7.1750E+00        0.0000E+00
        4.9920E-01        0.0000E+00        8.3190E+00        0.0000E+00
        5.0130E-01        0.0000E+00        6.9810E+00        0.0000E+00
        5.0340E-01        0.0000E+00        7.6240E+00        0.0000E+00
        5.0550E-01        0.0000E+00        7.5350E+00        0.0000E+00
        5.0760E-01        0.0000E+00        6.9720E+00        0.0000E+00
        5.0970E-01        0.0000E+00        8.1890E+00        0.0000E+00
        5.1190E-01        0.0000E+00        7.0820E+00        0.0000E+00
        5.1400E-01        0.0000E+00        7.5290E+00        0.0000E+00
        5.1620E-01        0.0000E+00        6.9720E+00        0.0000E+00
        5.1840E-01        0.0000E+00        6.9180E+00        0.0000E+00
        5.2060E-01        0.0000E+00        7.3170E+00        0.0000E+00
        5.2280E-01        0.0000E+00        7.5330E+00        0.0000E+00
        5.2500E-01        0.0000E+00        7.2590E+00        0.0000E+00
        5.2730E-01        0.0000E+00        7.4070E+00        0.0000E+00
        5.2950E-01        0.0000E+00        7.1250E+00        0.0000E+00
        5.3180E-01        0.0000E+00        7.7690E+00        0.0000E+00
        5.3410E-01        0.0000E+00        7.5410E+00        0.0000E+00
        5.3640E-01        0.0000E+00        7.5810E+00        0.0000E+00
        5.3870E-01        0.0000E+00        7.2150E+00        0.0000E+00
        5.4100E-01        0.0000E+00        7.6020E+00        0.0000E+00
        5.4340E-01        0.0000E+00        7.0560E+00        0.0000E+00
        5.4570E-01        0.0000E+00        7.3750E+00        0.0000E+00
        5.4810E-01        0.0000E+00        6.6280E+00        0.0000E+00
        5.5050E-01        0.0000E+00        7.5960E+00        0.0000E+00
        5.5290E-01        0.0000E+00        7.1750E+00        0.0000E+00
        5.5530E-01        0.0000E+00        7.1900E+00        0.0000E+00
        5.5770E-01        0.0000E+00        7.2250E+00        0.0000E+00
        5.6020E-01        0.0000E+00        7.5280E+00        0.0000E+00
        5.6270E-01        0.0000E+00        7.2700E+00        0.0000E+00
        5.6510E-01        0.0000E+00        7.7440E+00        0.0000E+00
        5.6760E-01        0.0000E+00        7.4600E+00        0.0000E+00
        5.7020E-01        0.0000E+00        7.0140E+00        0.0000E+00
        5.7270E-01        0.0000E+00        7.0350E+00        0.0000E+00
        5.7520E-01        0.0000E+00        7.0650E+00        0.0000E+00
        5.7780E-01        0.0000E+00        6.7090E+00        0.0000E+00
        5.8040E-01        0.0000E+00        7.4470E+00        0.0000E+00
        5.8300E-01        0.0000E+00        7.0980E+00        0.0000E+00
        5.8560E-01        0.0000E+00        7.5270E+00        0.0000E+00
        5.8830E-01        0.0000E+00        7.6870E+00        0.0000E+00
        5.9090E-01        0.0000E+00        7.6040E+00        0.0000E+00
        5.9360E-01        0.0000E+00        7.2110E+00        0.0000E+00
        5.9630E-01        0.0000E+00        7.5570E+00        0.0000E+00
        5.9900E-01        0.0000E+00        7.2990E+00        0.0000E+00
        6.0170E-01        0.0000E+00        8.1860E+00        0.0000E+00
        6.0450E-01        0.0000E+00        6.6650E+00        0.0000E+00
        6.0730E-01        0.0000E+00        7.9360E+00        0.0000E+00
        6.1000E-01        0.0000E+00        7.5850E+00        0.0000E+00
        6.1280E-01        0.0000E+00        7.2520E+00        0.0000E+00
        6.1570E-01        0.0000E+00        7.2450E+00        0.0000E+00
        6.1850E-01        0.0000E+00        6.9820E+00        0.0000E+00
        6.2140E-01        0.0000E+00        6.6920E+00        0.0000E+00
        6.2430E-01        0.0000E+00        7.3290E+00        0.0000E+00
        6.2720E-01        0.0000E+00        7.0700E+00        0.0000E+00
        6.3010E-01        0.0000E+00        7.2730E+00        0.0000E+00
        6.3300E-01        0.0000E+00        7.1890E+00        0.0000E+00
        6.3600E-01        0.0000E+00        7.0210E+00        0.0000E+00
        6.3900E-01        0.0000E+00        7.1940E+00        0.0000E+00
        6.4200E-01        0.0000E+00        7.0510E+00        0.0000E+00
        6.4500E-01        0.0000E+00        7.6060E+00        0.0000E+00
        6.4810E-01        0.0000E+00        6.9450E+00        0.0000E+00
        6.5120E-01        0.0000E+00        6.9980E+00        0.0000E+00
        6.5430E-01        0.0000E+00        7.1540E+00        0.0000E+00
        6.5740E-01        0.0000E+00        7.4450E+00        0.0000E+00
        6.6050E-01        0.0000E+00        7.3030E+00        0.0000E+00
        6.6370E-01        0.0000E+00        7.2740E+00        0.0000E+00
        6.6690E-01        0.0000E+00        7.0890E+00        0.0000E+00
        6.7010E-01        0.0000E+00        6.9090E+00        0.0000E+00
        6.7330E-01        0.0000E+00        7.3420E+00        0.0000E+00
        6.7650E-01        0.0000E+00        7.3920E+00        0.0000E+00
        6.7980E-01        0.0000E+00        6.9700E+00        0.0000E+00
        6.8310E-01        0.0000E+00        7.3850E+00        0.0000E+00
        6.8650E-01        0.0000E+00        7.2720E+00        0.0000E+00
        6.8980E-01        0.0000E+00        7.2150E+00        0.0000E+00
        6.9320E-01        0.0000E+00        7.6920E+00        0.0000E+00
        6.9660E-01        0.0000E+00        7.1610E+00        0.0000E+00
        7.0000E-01        0.0000E+00        7.3010E+00        0.0000E+00
        7.0350E-01        0.0000E+00        7.6120E+00        0.0000E+00
        7.0690E-01        0.0000E+00        7.2910E+00        0.0000E+00
        7.1040E-01        0.0000E+00        6.9470E+00        0.0000E+00
        7.1400E-01        0.0000E+00        7.3690E+00        0.0000E+00
        7.1750E-01        0.0000E+00        6.9810E+00        0.0000E+00
        7.2110E-01        0.0000E+00        7.3760E+00        0.0000E+00
        7.2470E-01        0.0000E+00        7.3120E+00        0.0000E+00
        7.2830E-01        0.0000E+00        6.6820E+00        0.0000E+00
        7.3200E-01        0.0000E+00        6.6480E+00        0.0000E+00
        7.3570E-01        0.0000E+00        6.6820E+00        0.0000E+00
        7.3940E-01        0.0000E+00        7.0300E+00        0.0000E+00
        7.4310E-01        0.0000E+00        7.0980E+00        0.0000E+00
        7.4690E-01        0.0000E+00        7.1500E+00        0.0000E+00
        7.5070E-01        0.0000E+00        6.7630E+00        0.0000E+00
        7.5460E-01        0.0000E+00        6.9670E+00        0.0000E+00
        7.5840E-01        0.0000E+00        6.9180E+00        0.0000E+00
        7.6230E-01        0.0000E+00        6.6420E+00        0.0000E+00
        7.6620E-01        0.0000E+00        7.0020E+00        0.0000E+00
        7.7020E-01        0.0000E+00        6.9880E+00        0.0000E+00
        7.7420E-01        0.0000E+00        6.7760E+00        0.0000E+00
        7.7820E-01        0.0000E+00        6.7040E+00        0.0000E+00
        7.8220E-01        0.0000E+00        6.6290E+00        0.0000E+00
        7.8630E-01        0.0000E+00        6.9880E+00        0.0000E+00
        7.9040E-01        0.0000E+00        6.9280E+00        0.0000E+00
        7.9460E-01        0.0000E+00        6.6940E+00        0.0000E+00
        7.9870E-01        0.0000E+00        7.1480E+00        0.0000E+00
        8.0290E-01        0.0000E+00        6.6850E+00        0.0000E+00
        8.0720E-01        0.0000E+00        6.7320E+00        0.0000E+00
        8.1150E-01        0.0000E+00        7.0530E+00        0.0000E+00
        8.1580E-01        0.0000E+00        6.7260E+00        0.0000E+00
        8.2010E-01        0.0000E+00        6.8290E+00        0.0000E+00
        8.2450E-01        0.0000E+00        6.7800E+00        0.0000E+00
        8.2890E-01        0.0000E+00        6.6120E+00        0.0000E+00
        8.3330E-01        0.0000E+00        6.6420E+00        0.0000E+00
        8.3780E-01        0.0000E+00        6.4400E+00        0.0000E+00
        8.4230E-01        0.0000E+00        6.9430E+00        0.0000E+00
        8.4690E-01        0.0000E+00        6.8900E+00        0.0000E+00
        8.5150E-01        0.0000E+00        6.6590E+00        0.0000E+00
        8.5610E-01        0.0000E+00        6.6480E+00        0.0000E+00
        8.6080E-01        0.0000E+00        6.5590E+00        0.0000E+00
        8.6550E-01        0.0000E+00        7.1390E+00        0.0000E+00
        8.7020E-01        0.0000E+00        6.7230E+00        0.0000E+00
        8.7500E-01        0.0000E+00        6.5510E+00        0.0000E+00
        8.7990E-01        0.0000E+00        6.8670E+00        0.0000E+00
        8.8470E-01        0.0000E+00        6.7580E+00        0.0000E+00
        8.8960E-01        0.0000E+00        6.5040E+00        0.0000E+00
        8.9460E-01        0.0000E+00        6.4430E+00        0.0000E+00
        8.9960E-01        0.0000E+00        6.5070E+00        0.0000E+00
        9.0460E-01        0.0000E+00        6.7540E+00        0.0000E+00
        9.0970E-01        0.0000E+00        6.3440E+00        0.0000E+00
        9.1480E-01        0.0000E+00        6.5080E+00        0.0000E+00
        9.1990E-01        0.0000E+00        6.5820E+00        0.0000E+00
        9.2510E-01        0.0000E+00        6.6780E+00        0.0000E+00
        9.3040E-01        0.0000E+00        6.5980E+00        0.0000E+00
        9.3570E-01        0.0000E+00        6.5390E+00        0.0000E+00
        9.4100E-01        0.0000E+00        6.9190E+00        0.0000E+00
        9.4640E-01        0.0000E+00        6.6950E+00        0.0000E+00
        9.5180E-01        0.0000E+00        6.3500E+00        0.0000E+00
        9.5730E-01        0.0000E+00        6.8670E+00        0.0000E+00
        9.6280E-01        0.0000E+00        6.2610E+00        0.0000E+00
        9.6840E-01        0.0000E+00        6.4280E+00        0.0000E+00
        9.7400E-01        0.0000E+00        6.4660E+00        0.0000E+00
        9.7970E-01        0.0000E+00        6.4210E+00        0.0000E+00
        9.8540E-01        0.0000E+00        6.1990E+00        0.0000E+00
        9.9120E-01        0.0000E+00        6.2970E+00        0.0000E+00
        9.9700E-01        0.0000E+00        6.5270E+00        0.0000E+00
        1.0030E+00        0.0000E+00        6.3430E+00        0.0000E+00
        1.0090E+00        0.0000E+00        6.5590E+00        0.0000E+00
        1.0150E+00        0.0000E+00        6.2820E+00        0.0000E+00
        1.0210E+00        0.0000E+00        6.3660E+00        0.0000E+00
        1.0270E+00        0.0000E+00        6.0700E+00        0.0000E+00
        1.0330E+00        0.0000E+00        6.3530E+00        0.0000E+00
        1.0390E+00        0.0000E+00        6.0830E+00        0.0000E+00
        1.0450E+00        0.0000E+00        6.1000E+00        0.0000E+00
        1.0520E+00        0.0000E+00        6.0420E+00        0.0000E+00
        1.0580E+00        0.0000E+00        6.1570E+00        0.0000E+00
        1.0650E+00        0.0000E+00        6.3260E+00        0.0000E+00
        1.0710E+00        0.0000E+00        5.9510E+00        0.0000E+00
        1.0780E+00        0.0000E+00        6.2510E+00        0.0000E+00
        1.0840E+00        0.0000E+00        6.0070E+00        0.0000E+00
        1.0910E+00        0.0000E+00        6.3030E+00        0.0000E+00
        1.0970E+00        0.0000E+00        6.0600E+00        0.0000E+00
        1.1040E+00        0.0000E+00        6.0710E+00        0.0000E+00
        1.1110E+00        0.0000E+00        6.0900E+00        0.0000E+00
        1.1180E+00        0.0000E+00        6.1090E+00        0.0000E+00
        1.1250E+00        0.0000E+00        5.8480E+00        0.0000E+00
        1.1320E+00        0.0000E+00        6.0040E+00        0.0000E+00
        1.1390E+00        0.0000E+00        6.1200E+00        0.0000E+00
        1.1460E+00        0.0000E+00        5.9340E+00        0.0000E+00
        1.1540E+00        0.0000E+00        5.9320E+00        0.0000E+00
        1.1610E+00        0.0000E+00        5.9210E+00        0.0000E+00
        1.1680E+00        0.0000E+00        5.9530E+00        0.0000E+00
        1.1760E+00        0.0000E+00        5.8610E+00        0.0000E+00
        1.1830E+00        0.0000E+00        5.9820E+00        0.0000E+00
        1.1910E+00        0.0000E+00        5.9030E+00        0.0000E+00
        1.1980E+00        0.0000E+00        6.1160E+00        0.0000E+00
        1.2060E+00        0.0000E+00        5.9390E+00        0.0000E+00
        1.2140E+00        0.0000E+00        6.0910E+00        0.0000E+00
        1.2220E+00        0.0000E+00        5.8240E+00        0.0000E+00
        1.2300E+00        0.0000E+00        5.8410E+00        0.0000E+00
        1.2380E+00        0.0000E+00        5.9160E+00        0.0000E+00
        1.2460E+00        0.0000E+00        6.0210E+00        0.0000E+00
        1.2540E+00        0.0000E+00        5.8280E+00        0.0000E+00
        1.2630E+00        0.0000E+00        5.8300E+00        0.0000E+00
        1.2710E+00        0.0000E+00        5.4880E+00        0.0000E+00
        1.2790E+00        0.0000E+00        5.5720E+00        0.0000E+00
        1.2880E+00        0.0000E+00        5.4370E+00        0.0000E+00
        1.2970E+00        0.0000E+00        5.7030E+00        0.0000E+00
        1.3050E+00        0.0000E+00        5.7270E+00        0.0000E+00
        1.3140E+00        0.0000E+00        5.7150E+00        0.0000E+00
        1.3230E+00        0.0000E+00        5.5830E+00        0.0000E+00
        1.3320E+00        0.0000E+00        5.6070E+00        0.0000E+00
        1.3410E+00        0.0000E+00        5.5910E+00        0.0000E+00
        1.3500E+00        0.0000E+00        5.6630E+00        0.0000E+00
        1.3590E+00        0.0000E+00        5.5890E+00        0.0000E+00
        1.3690E+00        0.0000E+00        5.6620E+00        0.0000E+00
        1.3780E+00        0.0000E+00        5.5550E+00        0.0000E+00
        1.3880E+00        0.0000E+00        5.5830E+00        0.0000E+00
        1.3970E+00        0.0000E+00        5.5270E+00        0.0000E+00
        1.4070E+00        0.0000E+00        5.5620E+00        0.0000E+00
        1.4170E+00        0.0000E+00        5.4010E+00        0.0000E+00
        1.4270E+00        0.0000E+00        5.5220E+00        0.0000E+00
        1.4370E+00        0.0000E+00        5.6350E+00        0.0000E+00
        1.4470E+00        0.0000E+00        5.4970E+00        0.0000E+00
        1.4580E+00        0.0000E+00        5.4120E+00        0.0000E+00
        1.4680E+00        0.0000E+00        5.4150E+00        0.0000E+00
        1.4780E+00        0.0000E+00        5.4950E+00        0.0000E+00
        1.4890E+00        0.0000E+00        5.4490E+00        0.0000E+00
        1.5000E+00        0.0000E+00        5.4380E+00        0.0000E+00
        1.5110E+00        0.0000E+00        5.2660E+00        0.0000E+00
        1.5220E+00        0.0000E+00        5.3440E+00        0.0000E+00
        1.5330E+00        0.0000E+00        5.1860E+00        0.0000E+00
        1.5440E+00        0.0000E+00        5.3350E+00        0.0000E+00
        1.5550E+00        0.0000E+00        5.2580E+00        0.0000E+00
        1.5670E+00        0.0000E+00        5.2220E+00        0.0000E+00
        1.5780E+00        0.0000E+00        5.1400E+00        0.0000E+00
        1.5900E+00        0.0000E+00        5.3070E+00        0.0000E+00
        1.6020E+00        0.0000E+00        5.1450E+00        0.0000E+00
        1.6140E+00        0.0000E+00        5.2370E+00        0.0000E+00
        1.6260E+00        0.0000E+00        5.1530E+00        0.0000E+00
        1.6380E+00        0.0000E+00        5.2300E+00        0.0000E+00
        1.6510E+00        0.0000E+00        5.2040E+00        0.0000E+00
        1.6630E+00        0.0000E+00        5.0400E+00        0.0000E+00
        1.6760E+00        0.0000E+00        5.1240E+00        0.0000E+00
        1.6890E+00        0.0000E+00        5.2310E+00        0.0000E+00
        1.7010E+00        0.0000E+00        5.0320E+00        0.0000E+00
        1.7150E+00        0.0000E+00        5.1490E+00        0.0000E+00
        1.7280E+00        0.0000E+00        5.0090E+00        0.0000E+00
        1.7410E+00        0.0000E+00        5.0850E+00        0.0000E+00
        1.7550E+00        0.0000E+00        5.0920E+00        0.0000E+00
        1.7690E+00        0.0000E+00        4.9790E+00        0.0000E+00
        1.7820E+00        0.0000E+00        4.8900E+00        0.0000E+00
        1.7970E+00        0.0000E+00        5.0480E+00        0.0000E+00
        1.8110E+00        0.0000E+00        4.9890E+00        0.0000E+00
        1.8250E+00        0.0000E+00        4.9590E+00        0.0000E+00
        1.8400E+00        0.0000E+00        4.9200E+00        0.0000E+00
        1.8550E+00        0.0000E+00        4.9530E+00        0.0000E+00
        1.8690E+00        0.0000E+00        4.8310E+00        0.0000E+00
        1.8850E+00        0.0000E+00        4.8310E+00        0.0000E+00
        1.9000E+00        0.0000E+00        4.8430E+00        0.0000E+00
        1.9150E+00        0.0000E+00        4.9350E+00        0.0000E+00
        1.9310E+00        0.0000E+00        4.8350E+00        0.0000E+00
        1.9470E+00        0.0000E+00        4.9060E+00        0.0000E+00
        1.9630E+00        0.0000E+00        4.7820E+00        0.0000E+00
        1.9790E+00        0.0000E+00        4.8320E+00        0.0000E+00
        1.9960E+00        0.0000E+00        4.7740E+00        0.0000E+00
        2.0120E+00        0.0000E+00        4.8350E+00        0.0000E+00
        2.0290E+00        0.0000E+00        4.7750E+00        0.0000E+00
        2.0460E+00        0.0000E+00        4.7260E+00        0.0000E+00
        2.0640E+00        0.0000E+00        4.7570E+00        0.0000E+00
        2.0810E+00        0.0000E+00        4.6170E+00        0.0000E+00
        2.0990E+00        0.0000E+00        4.6900E+00        0.0000E+00
        2.1170E+00        0.0000E+00        4.7370E+00        0.0000E+00
        2.1350E+00        0.0000E+00        4.6540E+00        0.0000E+00
        2.1530E+00        0.0000E+00        4.6300E+00        0.0000E+00
        2.1720E+00        0.0000E+00        4.6860E+00        0.0000E+00
        2.1910E+00        0.0000E+00        4.6330E+00        0.0000E+00
        2.2100E+00        0.0000E+00        4.6090E+00        0.0000E+00
        2.2300E+00        0.0000E+00        4.6470E+00        0.0000E+00
        2.2490E+00        0.0000E+00        4.4410E+00        0.0000E+00
        2.2690E+00        0.0000E+00        4.5620E+00        0.0000E+00
        2.2900E+00        0.0000E+00        4.5010E+00        0.0000E+00
        2.3100E+00        0.0000E+00        4.4610E+00        0.0000E+00
        2.3310E+00        0.0000E+00        4.5240E+00        0.0000E+00
        2.3520E+00        0.0000E+00        4.5320E+00        0.0000E+00
        2.3730E+00        0.0000E+00        4.5360E+00        0.0000E+00
        2.3950E+00        0.0000E+00        4.4890E+00        0.0000E+00
        2.4170E+00        0.0000E+00        4.3930E+00        0.0000E+00
        2.4390E+00        0.0000E+00        4.3570E+00        0.0000E+00
        2.4620E+00        0.0000E+00        4.4050E+00        0.0000E+00
        2.4840E+00        0.0000E+00        4.3020E+00        0.0000E+00
        2.5080E+00        0.0000E+00        4.3640E+00        0.0000E+00
        2.5310E+00        0.0000E+00        4.3240E+00        0.0000E+00
        2.5550E+00        0.0000E+00        4.2990E+00        0.0000E+00
        2.5790E+00        0.0000E+00        4.2440E+00        0.0000E+00
        2.6040E+00        0.0000E+00        4.3580E+00        0.0000E+00
        2.6290E+00        0.0000E+00        4.1460E+00        0.0000E+00
        2.6540E+00        0.0000E+00        4.2410E+00        0.0000E+00
        2.6790E+00        0.0000E+00        4.2730E+00        0.0000E+00
        2.7050E+00        0.0000E+00        4.1890E+00        0.0000E+00
        2.7320E+00        0.0000E+00        4.1390E+00        0.0000E+00
        2.7580E+00        0.0000E+00        4.1860E+00        0.0000E+00
        2.7860E+00        0.0000E+00        4.2170E+00        0.0000E+00
        2.8130E+00        0.0000E+00        4.1920E+00        0.0000E+00
        2.8410E+00        0.0000E+00        4.1390E+00        0.0000E+00
        2.8690E+00        0.0000E+00        4.1480E+00        0.0000E+00
        2.8980E+00        0.0000E+00        4.1440E+00        0.0000E+00
        2.9270E+00        0.0000E+00        4.0510E+00        0.0000E+00
        2.9570E+00        0.0000E+00        4.0730E+00        0.0000E+00
        2.9870E+00        0.0000E+00        3.9440E+00        0.0000E+00
        3.0180E+00        0.0000E+00        4.1130E+00        0.0000E+00
        3.0490E+00        0.0000E+00        4.0070E+00        0.0000E+00
        3.0810E+00        0.0000E+00        3.9880E+00        0.0000E+00
        3.1130E+00        0.0000E+00        3.9010E+00        0.0000E+00
        3.1450E+00        0.0000E+00        3.8710E+00        0.0000E+00
        3.1780E+00        0.0000E+00        3.9760E+00        0.0000E+00
        3.2120E+00        0.0000E+00        4.0260E+00        0.0000E+00
        3.2460E+00        0.0000E+00        3.9180E+00        0.0000E+00
        3.2810E+00        0.0000E+00        3.9180E+00        0.0000E+00
        3.3160E+00        0.0000E+00        3.9650E+00        0.0000E+00
        3.3520E+00        0.0000E+00        3.9340E+00        0.0000E+00
        3.3880E+00        0.0000E+00        3.9930E+00        0.0000E+00
        3.4250E+00        0.0000E+00        3.8070E+00        0.0000E+00
        3.4630E+00        0.0000E+00        3.7800E+00        0.0000E+00
        3.5010E+00        0.0000E+00        3.7880E+00        0.0000E+00
        3.5400E+00        0.0000E+00        3.7730E+00        0.0000E+00
        3.5790E+00        0.0000E+00        3.7880E+00        0.0000E+00
        3.6190E+00        0.0000E+00        3.8170E+00        0.0000E+00
        3.6600E+00        0.0000E+00        3.7110E+00        0.0000E+00
        3.7020E+00        0.0000E+00        3.7430E+00        0.0000E+00
        3.7440E+00        0.0000E+00        3.7700E+00        0.0000E+00
        3.7870E+00        0.0000E+00        3.6990E+00        0.0000E+00
        3.8310E+00        0.0000E+00        3.6910E+00        0.0000E+00
        3.8750E+00        0.0000E+00        3.7350E+00        0.0000E+00
        3.9200E+00        0.0000E+00        3.6760E+00        0.0000E+00
        3.9660E+00        0.0000E+00        3.9350E+00        0.0000E+00
        4.0130E+00        0.0000E+00        3.7980E+00        0.0000E+00
        4.0610E+00        0.0000E+00        3.7480E+00        0.0000E+00
        4.1100E+00        0.0000E+00        3.6460E+00        0.0000E+00
        4.1590E+00        0.0000E+00        3.6340E+00        0.0000E+00
        4.2100E+00        0.0000E+00        3.6200E+00        0.0000E+00
        4.2610E+00        0.0000E+00        3.6400E+00        0.0000E+00
        4.3130E+00        0.0000E+00        3.7140E+00        0.0000E+00
        4.3660E+00        0.0000E+00        3.7070E+00        0.0000E+00
        4.4210E+00        0.0000E+00        3.7460E+00        0.0000E+00
        4.4760E+00        0.0000E+00        3.7040E+00        0.0000E+00
        4.5320E+00        0.0000E+00        3.7490E+00        0.0000E+00
        4.5890E+00        0.0000E+00        3.6420E+00        0.0000E+00
        4.6480E+00        0.0000E+00        3.7290E+00        0.0000E+00
        4.7070E+00        0.0000E+00        3.7460E+00        0.0000E+00
        4.7680E+00        0.0000E+00        3.6580E+00        0.0000E+00
        4.8300E+00        0.0000E+00        3.7720E+00        0.0000E+00
        4.8930E+00        0.0000E+00        3.6940E+00        0.0000E+00
        4.9580E+00        0.0000E+00        3.6580E+00        0.0000E+00
        5.0230E+00        0.0000E+00        3.8040E+00        0.0000E+00
        5.0900E+00        0.0000E+00        3.6730E+00        0.0000E+00
        5.1580E+00        0.0000E+00        3.6160E+00        0.0000E+00
        5.2280E+00        0.0000E+00        3.7370E+00        0.0000E+00
        5.2990E+00        0.0000E+00        3.9160E+00        0.0000E+00
        5.3720E+00        0.0000E+00        3.7920E+00        0.0000E+00
        5.4460E+00        0.0000E+00        3.7090E+00        0.0000E+00
        5.5220E+00        0.0000E+00        3.8570E+00        0.0000E+00
        5.5990E+00        0.0000E+00        3.9350E+00        0.0000E+00
        5.6780E+00        0.0000E+00        3.8160E+00        0.0000E+00
        5.7580E+00        0.0000E+00        3.9960E+00        0.0000E+00
        5.8410E+00        0.0000E+00        4.0990E+00        0.0000E+00
        5.9250E+00        0.0000E+00        3.8190E+00        0.0000E+00
        6.0110E+00        0.0000E+00        3.9190E+00        0.0000E+00
        6.0990E+00        0.0000E+00        4.0720E+00        0.0000E+00
        6.1880E+00        0.0000E+00        3.7480E+00        0.0000E+00
        6.2800E+00        0.0000E+00        3.9340E+00        0.0000E+00
        6.3740E+00        0.0000E+00        4.3040E+00        0.0000E+00
        6.4700E+00        0.0000E+00        4.1150E+00        0.0000E+00
        6.5680E+00        0.0000E+00        4.0840E+00        0.0000E+00
        6.6680E+00        0.0000E+00        4.1110E+00        0.0000E+00
        6.7710E+00        0.0000E+00        4.0160E+00        0.0000E+00
        6.8760E+00        0.0000E+00        4.1240E+00        0.0000E+00
        6.9840E+00        0.0000E+00        3.9680E+00        0.0000E+00
        7.0940E+00        0.0000E+00        4.0140E+00        0.0000E+00
        7.2070E+00        0.0000E+00        4.3590E+00        0.0000E+00
        7.3220E+00        0.0000E+00        4.4040E+00        0.0000E+00
        7.4410E+00        0.0000E+00        3.9190E+00        0.0000E+00
        7.5620E+00        0.0000E+00        4.4440E+00        0.0000E+00
        7.6860E+00        0.0000E+00        3.8680E+00        0.0000E+00
        7.8130E+00        0.0000E+00        4.3720E+00        0.0000E+00
        7.9440E+00        0.0000E+00        4.2200E+00        0.0000E+00
        8.0780E+00        0.0000E+00        3.8980E+00        0.0000E+00
        8.2150E+00        0.0000E+00        4.5280E+00        0.0000E+00
        8.3560E+00        0.0000E+00        3.9660E+00        0.0000E+00
        8.5000E+00        0.0000E+00        4.2620E+00        0.0000E+00
        8.6490E+00        0.0000E+00        4.4450E+00        0.0000E+00
        8.8010E+00        0.0000E+00        4.8470E+00        0.0000E+00
        8.9570E+00        0.0000E+00        3.6100E+00        0.0000E+00
        9.1180E+00        0.0000E+00        4.5620E+00        0.0000E+00
        9.2830E+00        0.0000E+00        4.9430E+00        0.0000E+00
        9.4520E+00        0.0000E+00        4.1650E+00        0.0000E+00
        9.6260E+00        0.0000E+00        4.3370E+00        0.0000E+00
