# entry-subent-pointer  : 14229-016-0 
# EXFOR reaction        : ['96-CM-242', ['N,F'], ',,SIG,,,DERIV'] 
# incident energy       : 5.7350e-01 MeV - 5.0970e+00 MeV 
# target                : Cm-242 
# product               : - 
# level energy          : - 
# MF-MT number          : 3 - 18 
# first author          : H.C.Britt 
# institute             : (1USALAS): Los Alamos National Laboratory, NM 
# reference             : (J,NSE,72,222,1979) 
# year                  : 1979 
# facility              : (VDGT): Tandem van de Graaff 
# git                   : https://github.com/IAEA-NDS/exfor_master/blob/main/exforall/142/14229.x4 
# nds                   : https://nds.iaea.org/EXFOR/14229
#
#       E_in(MeV)       dE_in(MeV)            XS(B)           dXS(B)
      5.73500E-01      0.00000E+00      1.18800E+00      7.18200E-02
      7.57000E-01      0.00000E+00      1.40600E+00      9.14100E-02
      9.33100E-01      0.00000E+00      1.83100E+00      9.79300E-02
      1.14800E+00      0.00000E+00      1.74900E+00      8.81300E-02
      1.34800E+00      0.00000E+00      1.86000E+00      9.14100E-02
      1.55600E+00      0.00000E+00      2.08800E+00      0.00000E+00
      1.79600E+00      0.00000E+00      1.77100E+00      9.46600E-02
      1.93700E+00      0.00000E+00      1.86300E+00      8.48700E-02
      2.14400E+00      0.00000E+00      1.77100E+00      9.14100E-02
      2.33600E+00      0.00000E+00      2.01300E+00      8.81400E-02
      2.55100E+00      0.00000E+00      1.86200E+00      9.46800E-02
      2.74900E+00      0.00000E+00      1.60400E+00      8.81400E-02
      2.94100E+00      0.00000E+00      1.80600E+00      9.14200E-02
      3.14800E+00      0.00000E+00      1.89100E+00      9.14200E-02
      3.34700E+00      0.00000E+00      1.77400E+00      9.79300E-02
      3.54600E+00      0.00000E+00      1.80300E+00      9.14100E-02
      3.72900E+00      0.00000E+00      1.86100E+00      9.14200E-02
      3.93500E+00      0.00000E+00      1.63600E+00      9.46700E-02
      4.11800E+00      0.00000E+00      1.76600E+00      8.81400E-02
      4.31800E+00      0.00000E+00      1.91300E+00      8.16100E-02
      4.53300E+00      0.00000E+00      1.76600E+00      9.14100E-02
      4.71600E+00      0.00000E+00      1.86100E+00      8.81400E-02
      4.89800E+00      0.00000E+00      1.66500E+00      9.14000E-02
      5.09700E+00      0.00000E+00      1.70700E+00      8.81200E-02
