# entry-subent-pointer  : T0199-007-0 
# EXFOR reaction        : (26-FE-0(D,X)27-CO-55,,SIG,,,DERIV) 
# incident energy       : 5.1900e+00 MeV - 3.7970e+01 MeV 
# target                : Fe-0 
# product               : Co-55 
# level energy          : - 
# MF-MT number          : 3 - 10 
# first author          : Clark 
# institute             : (1USAORL): Oak Ridge National Laboratory, Oak Ridge, TN 
# reference             : (J,PR,179,1104,1969) 
# year                  : 1969 
# facility              : (ISOCY): Isochronous cyclotron 
# git                   : https://github.com/IAEA-NDS/exfor_master/blob/main/exforall/T01/T0199.x4 
# nds                   : https://nds.iaea.org/EXFOR/T0199
#
#       E_in(MeV)         dE_in(MeV)        XS(B)             dXS(B)
        5.1900E+00        0.0000E+00        1.0080E-02        0.0000E+00
        5.2400E+00        0.0000E+00        1.0410E-02        0.0000E+00
        5.3800E+00        0.0000E+00        1.0900E-02        0.0000E+00
        5.4700E+00        0.0000E+00        1.1410E-02        0.0000E+00
        5.6100E+00        0.0000E+00        1.1870E-02        0.0000E+00
        5.7500E+00        0.0000E+00        1.2350E-02        0.0000E+00
        5.9800E+00        0.0000E+00        1.2930E-02        0.0000E+00
        6.2100E+00        0.0000E+00        1.3630E-02        0.0000E+00
        6.4500E+00        0.0000E+00        1.4180E-02        0.0000E+00
        6.6800E+00        0.0000E+00        1.4650E-02        0.0000E+00
        6.9200E+00        0.0000E+00        1.4950E-02        0.0000E+00
        7.1500E+00        0.0000E+00        1.5250E-02        0.0000E+00
        7.3900E+00        0.0000E+00        1.5350E-02        0.0000E+00
        7.6300E+00        0.0000E+00        1.5460E-02        0.0000E+00
        7.8600E+00        0.0000E+00        1.5360E-02        0.0000E+00
        8.1500E+00        0.0000E+00        1.5270E-02        0.0000E+00
        8.3900E+00        0.0000E+00        1.5180E-02        0.0000E+00
        8.6300E+00        0.0000E+00        1.4890E-02        0.0000E+00
        8.8600E+00        0.0000E+00        1.4700E-02        0.0000E+00
        9.0600E+00        0.0000E+00        1.4420E-02        0.0000E+00
        9.4800E+00        0.0000E+00        1.3960E-02        0.0000E+00
        9.8700E+00        0.0000E+00        1.3520E-02        0.0000E+00
        1.0060E+01        0.0000E+00        1.3180E-02        0.0000E+00
        1.0300E+01        0.0000E+00        1.2930E-02        0.0000E+00
        1.0540E+01        0.0000E+00        1.2520E-02        0.0000E+00
        1.0820E+01        0.0000E+00        1.2200E-02        0.0000E+00
        1.1010E+01        0.0000E+00        1.1890E-02        0.0000E+00
        1.1250E+01        0.0000E+00        1.1660E-02        0.0000E+00
        1.1490E+01        0.0000E+00        1.1290E-02        0.0000E+00
        1.1730E+01        0.0000E+00        1.0930E-02        0.0000E+00
        1.1970E+01        0.0000E+00        1.0650E-02        0.0000E+00
        1.2210E+01        0.0000E+00        1.0310E-02        0.0000E+00
        1.2550E+01        0.0000E+00        9.9900E-03        0.0000E+00
        1.2830E+01        0.0000E+00        9.6100E-03        0.0000E+00
        1.3070E+01        0.0000E+00        9.3000E-03        0.0000E+00
        1.3310E+01        0.0000E+00        9.0700E-03        0.0000E+00
        1.3500E+01        0.0000E+00        8.8400E-03        0.0000E+00
        1.3690E+01        0.0000E+00        8.6100E-03        0.0000E+00
        1.3890E+01        0.0000E+00        8.3900E-03        0.0000E+00
        1.4080E+01        0.0000E+00        8.1800E-03        0.0000E+00
        1.4320E+01        0.0000E+00        7.9700E-03        0.0000E+00
        1.4510E+01        0.0000E+00        7.7700E-03        0.0000E+00
        1.4700E+01        0.0000E+00        7.5700E-03        0.0000E+00
        1.4890E+01        0.0000E+00        7.3800E-03        0.0000E+00
        1.5080E+01        0.0000E+00        7.1400E-03        0.0000E+00
        1.5320E+01        0.0000E+00        6.9600E-03        0.0000E+00
        1.5520E+01        0.0000E+00        6.7400E-03        0.0000E+00
        1.5750E+01        0.0000E+00        6.5700E-03        0.0000E+00
        1.5990E+01        0.0000E+00        6.4000E-03        0.0000E+00
        1.6180E+01        0.0000E+00        6.2400E-03        0.0000E+00
        1.6420E+01        0.0000E+00        6.0800E-03        0.0000E+00
        1.6660E+01        0.0000E+00        5.9200E-03        0.0000E+00
        1.6950E+01        0.0000E+00        5.7700E-03        0.0000E+00
        1.7190E+01        0.0000E+00        5.6600E-03        0.0000E+00
        1.7470E+01        0.0000E+00        5.5900E-03        0.0000E+00
        1.7710E+01        0.0000E+00        5.5200E-03        0.0000E+00
        1.8000E+01        0.0000E+00        5.4900E-03        0.0000E+00
        1.8230E+01        0.0000E+00        5.4900E-03        0.0000E+00
        1.8470E+01        0.0000E+00        5.5300E-03        0.0000E+00
        1.8710E+01        0.0000E+00        5.6000E-03        0.0000E+00
        1.8940E+01        0.0000E+00        5.7100E-03        0.0000E+00
        1.9230E+01        0.0000E+00        5.8300E-03        0.0000E+00
        1.9410E+01        0.0000E+00        5.9900E-03        0.0000E+00
        1.9690E+01        0.0000E+00        6.1900E-03        0.0000E+00
        1.9880E+01        0.0000E+00        6.3500E-03        0.0000E+00
        2.0120E+01        0.0000E+00        6.6100E-03        0.0000E+00
        2.0300E+01        0.0000E+00        6.8700E-03        0.0000E+00
        2.0490E+01        0.0000E+00        7.1000E-03        0.0000E+00
        2.0680E+01        0.0000E+00        7.3900E-03        0.0000E+00
        2.0860E+01        0.0000E+00        7.7400E-03        0.0000E+00
        2.1000E+01        0.0000E+00        8.0500E-03        0.0000E+00
        2.1240E+01        0.0000E+00        8.4300E-03        0.0000E+00
        2.1380E+01        0.0000E+00        8.8200E-03        0.0000E+00
        2.1560E+01        0.0000E+00        9.1800E-03        0.0000E+00
        2.1700E+01        0.0000E+00        9.6700E-03        0.0000E+00
        2.1840E+01        0.0000E+00        1.0120E-02        0.0000E+00
        2.2020E+01        0.0000E+00        1.0670E-02        0.0000E+00
        2.2160E+01        0.0000E+00        1.1100E-02        0.0000E+00
        2.2300E+01        0.0000E+00        1.1620E-02        0.0000E+00
        2.2400E+01        0.0000E+00        1.2160E-02        0.0000E+00
        2.2530E+01        0.0000E+00        1.2730E-02        0.0000E+00
        2.2670E+01        0.0000E+00        1.3160E-02        0.0000E+00
        2.2760E+01        0.0000E+00        1.3680E-02        0.0000E+00
        2.2950E+01        0.0000E+00        1.4610E-02        0.0000E+00
        2.3090E+01        0.0000E+00        1.5200E-02        0.0000E+00
        2.3180E+01        0.0000E+00        1.6010E-02        0.0000E+00
        2.3270E+01        0.0000E+00        1.6760E-02        0.0000E+00
        2.3460E+01        0.0000E+00        1.7670E-02        0.0000E+00
        2.3600E+01        0.0000E+00        1.8620E-02        0.0000E+00
        2.3730E+01        0.0000E+00        1.9490E-02        0.0000E+00
        2.3870E+01        0.0000E+00        2.0400E-02        0.0000E+00
        2.4060E+01        0.0000E+00        2.1500E-02        0.0000E+00
        2.4200E+01        0.0000E+00        2.2370E-02        0.0000E+00
        2.4390E+01        0.0000E+00        2.3420E-02        0.0000E+00
        2.4520E+01        0.0000E+00        2.4520E-02        0.0000E+00
        2.4710E+01        0.0000E+00        2.5670E-02        0.0000E+00
        2.4900E+01        0.0000E+00        2.6530E-02        0.0000E+00
        2.5040E+01        0.0000E+00        2.7770E-02        0.0000E+00
        2.5180E+01        0.0000E+00        2.8700E-02        0.0000E+00
        2.5410E+01        0.0000E+00        2.9660E-02        0.0000E+00
        2.5600E+01        0.0000E+00        3.1060E-02        0.0000E+00
        2.5780E+01        0.0000E+00        3.1890E-02        0.0000E+00
        2.6020E+01        0.0000E+00        3.3170E-02        0.0000E+00
        2.6250E+01        0.0000E+00        3.4730E-02        0.0000E+00
        2.6490E+01        0.0000E+00        3.6130E-02        0.0000E+00
        2.6720E+01        0.0000E+00        3.7340E-02        0.0000E+00
        2.7000E+01        0.0000E+00        3.8850E-02        0.0000E+00
        2.7190E+01        0.0000E+00        3.9880E-02        0.0000E+00
        2.7470E+01        0.0000E+00        4.1220E-02        0.0000E+00
        2.7750E+01        0.0000E+00        4.2610E-02        0.0000E+00
        2.8040E+01        0.0000E+00        4.4040E-02        0.0000E+00
        2.8320E+01        0.0000E+00        4.5520E-02        0.0000E+00
        2.8600E+01        0.0000E+00        4.6740E-02        0.0000E+00
        2.8880E+01        0.0000E+00        4.7990E-02        0.0000E+00
        2.9120E+01        0.0000E+00        4.9280E-02        0.0000E+00
        2.9450E+01        0.0000E+00        5.0280E-02        0.0000E+00
        2.9780E+01        0.0000E+00        5.1300E-02        0.0000E+00
        3.0060E+01        0.0000E+00        5.2670E-02        0.0000E+00
        3.0300E+01        0.0000E+00        5.3730E-02        0.0000E+00
        3.0580E+01        0.0000E+00        5.4460E-02        0.0000E+00
        3.0910E+01        0.0000E+00        5.5560E-02        0.0000E+00
        3.1190E+01        0.0000E+00        5.6690E-02        0.0000E+00
        3.1530E+01        0.0000E+00        5.7460E-02        0.0000E+00
        3.1760E+01        0.0000E+00        5.8610E-02        0.0000E+00
        3.2040E+01        0.0000E+00        5.9020E-02        0.0000E+00
        3.2330E+01        0.0000E+00        5.9820E-02        0.0000E+00
        3.2700E+01        0.0000E+00        6.0300E-02        0.0000E+00
        3.3100E+01        0.0000E+00        6.1060E-02        0.0000E+00
        3.3600E+01        0.0000E+00        6.1510E-02        0.0000E+00
        3.3940E+01        0.0000E+00        6.1940E-02        0.0000E+00
        3.4220E+01        0.0000E+00        6.2380E-02        0.0000E+00
        3.4510E+01        0.0000E+00        6.2400E-02        0.0000E+00
        3.4840E+01        0.0000E+00        6.2430E-02        0.0000E+00
        3.5220E+01        0.0000E+00        6.2060E-02        0.0000E+00
        3.5550E+01        0.0000E+00        6.1680E-02        0.0000E+00
        3.5930E+01        0.0000E+00        6.1310E-02        0.0000E+00
        3.6310E+01        0.0000E+00        6.0950E-02        0.0000E+00
        3.6640E+01        0.0000E+00        6.0580E-02        0.0000E+00
        3.7070E+01        0.0000E+00        6.0220E-02        0.0000E+00
        3.7400E+01        0.0000E+00        5.9470E-02        0.0000E+00
        3.7740E+01        0.0000E+00        5.9110E-02        0.0000E+00
        3.7970E+01        0.0000E+00        5.8750E-02        0.0000E+00
