# entry-subent-pointer  : E1988-004-0 
# EXFOR reaction        : ['26-FE-0', ['D,X'], '27-CO-55,,SIG'] 
# incident energy       : 1.6220e+01 MeV - 4.7270e+01 MeV 
# target                : Fe-0 
# product               : Co-55 
# level energy          : - 
# MF-MT number          : 3 - 10 
# first author          : M.Nakao 
# institute             : (2JPNJAE): Japan Atomic Energy Agency (JAEA) 
# reference             : (J,NIM/A,562,785,2006) 
# year                  : 2006 
# facility              : (ISOCY): Isochronous cyclotron 
# git                   : https://github.com/IAEA-NDS/exfor_master/blob/main/exforall/E19/E1988.x4 
# nds                   : https://nds.iaea.org/EXFOR/E1988
#
#       E_in(MeV)       dE_in(MeV)            XS(B)           dXS(B)
      1.62200E+01      0.00000E+00      4.06000E-03      0.00000E+00
      1.80600E+01      0.00000E+00      3.67000E-03      0.00000E+00
      2.04300E+01      0.00000E+00      4.07000E-03      0.00000E+00
      2.05900E+01      0.00000E+00      4.35000E-03      0.00000E+00
      2.21500E+01      0.00000E+00      9.04000E-03      0.00000E+00
      2.31800E+01      0.00000E+00      1.28000E-02      0.00000E+00
      2.36500E+01      0.00000E+00      1.45300E-02      0.00000E+00
      2.59800E+01      0.00000E+00      1.81900E-02      0.00000E+00
      2.63800E+01      0.00000E+00      1.81200E-02      0.00000E+00
      2.76500E+01      0.00000E+00      2.44900E-02      0.00000E+00
      2.85400E+01      0.00000E+00      2.66500E-02      0.00000E+00
      2.95000E+01      0.00000E+00      3.14100E-02      0.00000E+00
      3.05900E+01      0.00000E+00      3.16300E-02      0.00000E+00
      3.12700E+01      0.00000E+00      3.48000E-02      0.00000E+00
      3.23800E+01      0.00000E+00      3.77400E-02      0.00000E+00
      3.33800E+01      0.00000E+00      4.02700E-02      0.00000E+00
      3.35600E+01      0.00000E+00      3.75500E-02      0.00000E+00
      3.50100E+01      0.00000E+00      3.87000E-02      0.00000E+00
      3.65800E+01      0.00000E+00      3.76100E-02      0.00000E+00
      3.81000E+01      0.00000E+00      3.22800E-02      0.00000E+00
      3.95700E+01      0.00000E+00      3.06400E-02      0.00000E+00
      4.26000E+01      0.00000E+00      3.19200E-02      0.00000E+00
      4.36700E+01      0.00000E+00      2.81900E-02      0.00000E+00
      4.72700E+01      0.00000E+00      2.55600E-02      0.00000E+00
