# entry-subent-pointer  : 23384-004-0 
# EXFOR reaction        : ['68-ER-0', ['N,TOT'], ',,SIG'] 
# incident energy       : 6.3620e-10 MeV - 2.2680e-08 MeV 
# target                : Er-0 
# product               : - 
# level energy          : - 
# MF-MT number          : 3 - 1 
# first author          : Y.Ohno 
# institute             : (2JPNJAE): Japan Atomic Energy Agency (JAEA) 
# reference             : (R,INDSWG-90,2,1965) 
# year                  : 1965 
# facility              : (REAC): Reactor 
# git                   : https://github.com/IAEA-NDS/exfor_master/blob/main/exforall/233/23384.x4 
# nds                   : https://nds.iaea.org/EXFOR/23384
#
#       E_in(MeV)       dE_in(MeV)            XS(B)           dXS(B)
      6.36200E-10      3.40367E-12      9.91000E+02      0.00000E+00
      8.06900E-10      4.31692E-12      8.26200E+02      0.00000E+00
      9.77400E-10      5.22909E-12      6.67000E+02      0.00000E+00
      1.21900E-09      6.52165E-12      6.77700E+02      0.00000E+00
      1.40400E-09      7.51140E-12      5.96600E+02      0.00000E+00
      1.64100E-09      8.77935E-12      5.83300E+02      0.00000E+00
      1.90100E-09      1.01704E-11      5.06700E+02      0.00000E+00
      2.18800E-09      1.17058E-11      4.34400E+02      0.00000E+00
      2.52900E-09      1.35302E-11      4.78400E+02      0.00000E+00
      2.80900E-09      1.50282E-11      3.45800E+02      0.00000E+00
      3.09900E-09      1.65797E-11      3.59100E+02      0.00000E+00
      3.42800E-09      1.83398E-11      4.36900E+02      0.00000E+00
      3.54300E-09      1.89551E-11      4.54200E+02      0.00000E+00
      3.82000E-09      2.04370E-11      3.79700E+02      0.00000E+00
      3.88000E-09      2.07580E-11      4.44700E+02      0.00000E+00
      4.57900E-09      2.44976E-11      3.61500E+02      0.00000E+00
      4.75900E-09      2.54607E-11      3.51900E+02      0.00000E+00
      5.54700E-09      2.96765E-11      2.93700E+02      0.00000E+00
      5.70700E-09      3.05325E-11      3.39400E+02      0.00000E+00
      6.52500E-09      3.49088E-11      2.89100E+02      0.00000E+00
      6.58900E-09      3.52511E-11      3.54600E+02      0.00000E+00
      7.65200E-09      4.09382E-11      2.36600E+02      0.00000E+00
      7.77400E-09      4.15909E-11      2.82600E+02      0.00000E+00
      8.77500E-09      4.69462E-11      2.42400E+02      0.00000E+00
      9.88000E-09      5.28580E-11      2.65300E+02      0.00000E+00
      1.13200E-08      6.05620E-11      2.62900E+02      0.00000E+00
      1.27300E-08      6.81055E-11      2.67600E+02      0.00000E+00
      1.42000E-08      7.59700E-11      2.48500E+02      0.00000E+00
      1.56300E-08      8.36205E-11      2.23200E+02      0.00000E+00
      1.87000E-08      1.00045E-10      1.87500E+02      0.00000E+00
      2.26800E-08      1.21338E-10      1.64900E+02      0.00000E+00
