# entry-subent-pointer  : 20939-009-0 
# EXFOR reaction        : (94-PU-239(N,TOT),,SIG) 
# incident energy       : 3.7240e-05 MeV - 3.9160e-05 MeV 
# target                : Pu-239 
# product               : - 
# level energy          : - 
# MF-MT number          : 3 - 1 
# first author          : Uttley 
# institute             : (2UK HAR): Atomic Energy Research Establishment (AERE), Harwell 
# reference             : (C,65ANTWERP,,535(98),196507) 
# year                  : 1965 
# facility              : (LINAC): Linear accelerator 
# git                   : https://github.com/IAEA-NDS/exfor_master/blob/main/exforall/209/20939.x4 
# nds                   : https://nds.iaea.org/EXFOR/20939
#
#       E_in(MeV)         dE_in(MeV)        XS(B)             dXS(B)
        3.7240E-05        0.0000E+00        1.0790E+01        6.2582E+00
        3.7250E-05        0.0000E+00        1.3440E+01        6.5856E+00
        3.7270E-05        0.0000E+00        1.0900E+01        6.2130E+00
        3.7290E-05        0.0000E+00        2.7880E+00        6.0500E+00
        3.7310E-05        0.0000E+00        1.0170E+01        6.9156E+00
        3.7320E-05        0.0000E+00        1.2530E+01        7.2674E+00
        3.7330E-05        0.0000E+00        1.2500E+01        6.2500E+00
        3.7350E-05        0.0000E+00        1.3220E+01        6.2134E+00
        3.7360E-05        0.0000E+00        1.7740E+01        6.9186E+00
        3.7370E-05        0.0000E+00        2.1730E+01        7.3882E+00
        3.7380E-05        0.0000E+00        1.7000E+01        6.6300E+00
        3.7400E-05        0.0000E+00        2.0100E+01        7.0350E+00
        3.7410E-05        0.0000E+00        3.0700E+01        8.5960E+00
        3.7420E-05        0.0000E+00        4.1960E+00        5.1611E+00
        3.7440E-05        0.0000E+00        4.6280E+00        5.6462E+00
        3.7450E-05        0.0000E+00        1.1030E+01        6.3974E+00
        3.7460E-05        0.0000E+00        8.9230E+00        6.1569E+00
        3.7480E-05        0.0000E+00        4.2730E+00        5.6404E+00
        3.7490E-05        0.0000E+00        8.8260E+00        5.7369E+00
        3.7500E-05        0.0000E+00        9.3950E+00        5.8249E+00
        3.7520E-05        0.0000E+00        1.5530E+01        6.5226E+00
        3.7530E-05        0.0000E+00        2.0560E+01        7.1960E+00
        3.7540E-05        0.0000E+00        1.1120E+01        6.1160E+00
        3.7560E-05        0.0000E+00        1.4850E+01        6.5340E+00
        3.7570E-05        0.0000E+00        1.5030E+01        6.6132E+00
        3.7580E-05        0.0000E+00        4.1790E+00        5.3491E+00
        3.7600E-05        0.0000E+00        1.3760E+01        6.4672E+00
        3.7610E-05        0.0000E+00        5.3130E+00        5.4724E+00
        3.7620E-05        0.0000E+00        2.2340E+01        7.5956E+00
        3.7640E-05        0.0000E+00        1.9150E+01        7.2770E+00
        3.7650E-05        0.0000E+00        6.7490E+00        5.8041E+00
        3.7660E-05        0.0000E+00        2.7480E+01        8.7936E+00
        3.7680E-05        0.0000E+00        2.6030E+00        5.3361E+00
        3.7690E-05        0.0000E+00        1.0720E+01        6.2176E+00
        3.7700E-05        0.0000E+00        4.7320E+00        5.3945E+00
        3.7720E-05        0.0000E+00        8.4320E+00        5.8181E+00
        3.7730E-05        0.0000E+00        3.1970E+00        5.2751E+00
        3.7740E-05        0.0000E+00        5.7900E+00        5.5584E+00
        3.7760E-05        0.0000E+00        7.0030E+00        5.2523E+00
        3.7770E-05        0.0000E+00        1.2830E+01        5.7735E+00
        3.7780E-05        0.0000E+00        3.1080E+01        8.3916E+00
        3.7800E-05        0.0000E+00        3.2230E+01        8.7021E+00
        3.7820E-05        0.0000E+00        6.4410E+00        5.4748E+00
        3.7840E-05        0.0000E+00        1.6070E+01        6.5887E+00
        3.7850E-05        0.0000E+00        1.0290E+01        5.8653E+00
        3.7860E-05        0.0000E+00        9.6080E+00        5.7648E+00
        3.7880E-05        0.0000E+00        1.9620E+01        6.8670E+00
        3.7890E-05        0.0000E+00        2.6630E+01        7.9890E+00
        3.7900E-05        0.0000E+00        1.0810E+01        5.8374E+00
        3.7930E-05        0.0000E+00        1.0850E+01        6.7270E+00
        3.7940E-05        0.0000E+00        1.2040E+01        6.8628E+00
        3.7960E-05        0.0000E+00        6.0840E+00        6.1448E+00
        3.7970E-05        0.0000E+00        1.1940E+00        5.7312E+00
        3.8000E-05        0.0000E+00        3.0840E+00        5.9213E+00
        3.8010E-05        0.0000E+00        1.5910E+01        7.4777E+00
        3.8030E-05        0.0000E+00        9.8200E+00        5.9902E+00
        3.8040E-05        0.0000E+00        1.2090E+01        6.1659E+00
        3.8050E-05        0.0000E+00        4.2790E+01        1.1981E+01
        3.8070E-05        0.0000E+00        9.2960E+00        5.8565E+00
        3.8080E-05        0.0000E+00        1.5100E+01        6.9460E+00
        3.8090E-05        0.0000E+00        3.9860E+01        1.1559E+01
        3.8110E-05        0.0000E+00        2.3860E+01        8.3510E+00
        3.8120E-05        0.0000E+00        4.3750E+01        1.2688E+01
        3.8130E-05        0.0000E+00        4.2910E+01        1.2015E+01
        3.8150E-05        0.0000E+00        4.9540E+01        1.3871E+01
        3.8160E-05        0.0000E+00        7.6730E+01        2.6088E+01
        3.8170E-05        0.0000E+00        6.3040E+01        1.8912E+01
        3.8190E-05        0.0000E+00        8.5830E+01        3.2615E+01
        3.8200E-05        0.0000E+00        8.3040E+01        3.0725E+01
        3.8220E-05        0.0000E+00        1.2180E+02        7.9170E+01
        3.8230E-05        0.0000E+00        5.5630E+01        1.6133E+01
        3.8240E-05        0.0000E+00        7.7970E+01        2.5730E+01
        3.8300E-05        0.0000E+00        1.2640E+02        8.3424E+01
        3.8310E-05        0.0000E+00        1.4810E+02        1.4218E+02
        3.8320E-05        0.0000E+00        6.7810E+01        2.0343E+01
        3.8340E-05        0.0000E+00        1.9100E+02        4.1256E+02
        3.8350E-05        0.0000E+00        1.1890E+02        7.3718E+01
        3.8370E-05        0.0000E+00        2.2110E+02        9.0872E+02
        3.8380E-05        0.0000E+00        5.6690E+01        1.6440E+01
        3.8390E-05        0.0000E+00        7.4760E+01        2.5418E+01
        3.8410E-05        0.0000E+00        5.6750E+01        1.6457E+01
        3.8420E-05        0.0000E+00        5.6370E+01        1.6347E+01
        3.8430E-05        0.0000E+00        2.8450E+01        8.5350E+00
        3.8450E-05        0.0000E+00        3.6410E+01        1.0195E+01
        3.8460E-05        0.0000E+00        2.9270E+01        8.4883E+00
        3.8480E-05        0.0000E+00        5.9730E+01        1.6724E+01
        3.8490E-05        0.0000E+00        3.0760E+01        8.9204E+00
        3.8500E-05        0.0000E+00        1.5320E+01        6.4344E+00
        3.8530E-05        0.0000E+00        1.8130E+01        6.8894E+00
        3.8540E-05        0.0000E+00        2.4310E+01        7.7792E+00
        3.8560E-05        0.0000E+00        1.2850E+01        6.1680E+00
        3.8570E-05        0.0000E+00        1.2810E+01        6.9174E+00
        3.8590E-05        0.0000E+00        2.0910E+00        5.6457E+00
        3.8600E-05        0.0000E+00        7.4740E+00        6.2782E+00
        3.8610E-05        0.0000E+00        7.5940E+00        6.2271E+00
        3.8630E-05        0.0000E+00        2.1610E+01        7.5635E+00
        3.8640E-05        0.0000E+00        8.6820E+00        5.9038E+00
        3.8650E-05        0.0000E+00        2.1700E+01        7.5950E+00
        3.8670E-05        0.0000E+00        1.6150E+01        6.7830E+00
        3.8680E-05        0.0000E+00        1.2660E+01        6.2034E+00
        3.8700E-05        0.0000E+00        1.3160E+01        6.3168E+00
        3.8710E-05        0.0000E+00        1.2270E+01        6.1350E+00
        3.8720E-05        0.0000E+00        6.8150E+00        5.5883E+00
        3.8740E-05        0.0000E+00        1.1700E+01        6.3180E+00
        3.8750E-05        0.0000E+00        7.4890E+00        5.7665E+00
        3.8770E-05        0.0000E+00        1.1640E+01        6.2856E+00
        3.8780E-05        0.0000E+00        1.9470E+00        5.2569E+00
        3.8790E-05        0.0000E+00        9.9900E+00        5.6943E+00
        3.8810E-05        0.0000E+00        1.0610E+01        5.8355E+00
        3.8820E-05        0.0000E+00        1.4270E+01        6.2788E+00
        3.8840E-05        0.0000E+00        2.3790E+01        7.6128E+00
        3.8850E-05        0.0000E+00        8.8750E-01        5.1298E+00
        3.8860E-05        0.0000E+00        1.4960E+01        6.5824E+00
        3.8880E-05        0.0000E+00        4.7320E+00        5.4418E+00
        3.8890E-05        0.0000E+00        8.6200E+00        5.8616E+00
        3.8910E-05        0.0000E+00        3.0390E+00        5.3486E+00
        3.8920E-05        0.0000E+00        1.1170E+01        6.2552E+00
        3.8930E-05        0.0000E+00        1.3490E+01        6.4752E+00
        3.8950E-05        0.0000E+00        9.9920E+00        6.0951E+00
        3.8960E-05        0.0000E+00        9.7320E+00        5.6446E+00
        3.8980E-05        0.0000E+00        1.3880E+01        6.1072E+00
        3.8990E-05        0.0000E+00        1.5700E+01        6.2800E+00
        3.9000E-05        0.0000E+00        2.3010E+01        7.3632E+00
        3.9030E-05        0.0000E+00        1.6210E+01        6.6461E+00
        3.9050E-05        0.0000E+00        4.6010E+00        5.3372E+00
        3.9060E-05        0.0000E+00        9.5480E+00        5.8243E+00
        3.9070E-05        0.0000E+00        1.3720E+01        6.1740E+00
        3.9090E-05        0.0000E+00        1.0680E+01        5.7672E+00
        3.9100E-05        0.0000E+00        1.8510E+01        6.6636E+00
        3.9120E-05        0.0000E+00        1.2000E+01        5.8800E+00
        3.9130E-05        0.0000E+00        2.0300E+01        7.3080E+00
        3.9140E-05        0.0000E+00        6.6640E+00        5.5978E+00
        3.9160E-05        0.0000E+00        2.4430E+01        7.8176E+00
