# entry-subent-pointer  : G0025-002-0 
# EXFOR reaction        : ['92-U-238', ['G,F'], 'MASS,PRE,FY,,BRA'] 
# incident energy       : 8.5000e+00 MeV 
# target                : U-238 
# product               : 61.0 <= A <= 180.0 
# level energy          : - 
# MF-MT number          : 8 - 460 
# first author          : A.Goeoek 
# institute             : (2SWDSWD): Sweden 
# reference             : (J,NP/A,851,1,2011) 
# year                  : 2011 
# facility              : (LINAC): Linear accelerator 
# git                   : https://github.com/IAEA-NDS/exfor_master/blob/main/exforall/G00/G0025.x4 
# nds                   : https://nds.iaea.org/EXFOR/G0025
#
# Charge(No Dim.)    Mass(No Dim.)  Isomer(No Dim.)    Yield(%/fiss)   dYield(%/fiss)
                              61.0                       0.00000E+00      0.00000E+00
                              62.0                       0.00000E+00      0.00000E+00
                              63.0                       0.00000E+00      0.00000E+00
                              64.0                       0.00000E+00      0.00000E+00
                              65.0                       0.00000E+00      0.00000E+00
                              66.0                       0.00000E+00      0.00000E+00
                              67.0                       0.00000E+00      0.00000E+00
                              68.0                       0.00000E+00      0.00000E+00
                              69.0                       0.00000E+00      0.00000E+00
                              70.0                       0.00000E+00      0.00000E+00
                              71.0                       0.00000E+00      0.00000E+00
                              72.0                       2.36000E-05      0.00000E+00
                              73.0                       0.00000E+00      0.00000E+00
                              74.0                       0.00000E+00      0.00000E+00
                              75.0                       4.73000E-05      0.00000E+00
                              76.0                       1.42000E-04      0.00000E+00
                              77.0                       2.60000E-04      0.00000E+00
                              78.0                       3.78000E-04      0.00000E+00
                              79.0                       5.20000E-04      0.00000E+00
                              80.0                       1.02000E-03      0.00000E+00
                              81.0                       1.51000E-03      0.00000E+00
                              82.0                       2.67000E-03      0.00000E+00
                              83.0                       4.28000E-03      0.00000E+00
                              84.0                       5.56000E-03      0.00000E+00
                              85.0                       6.93000E-03      0.00000E+00
                              86.0                       9.96000E-03      0.00000E+00
                              87.0                       1.25000E-02      0.00000E+00
                              88.0                       1.69000E-02      0.00000E+00
                              89.0                       2.13000E-02      0.00000E+00
                              90.0                       2.59000E-02      0.00000E+00
                              91.0                       3.09000E-02      0.00000E+00
                              92.0                       3.80000E-02      0.00000E+00
                              93.0                       4.14000E-02      0.00000E+00
                              94.0                       4.63000E-02      0.00000E+00
                              95.0                       5.03000E-02      0.00000E+00
                              96.0                       5.60000E-02      0.00000E+00
                              97.0                       5.45000E-02      0.00000E+00
                              98.0                       5.64000E-02      0.00000E+00
                              99.0                       6.39000E-02      0.00000E+00
                             100.0                       6.61000E-02      0.00000E+00
                             101.0                       6.55000E-02      0.00000E+00
                             102.0                       5.99000E-02      0.00000E+00
                             103.0                       5.89000E-02      0.00000E+00
                             104.0                       5.26000E-02      0.00000E+00
                             105.0                       4.28000E-02      0.00000E+00
                             106.0                       3.61000E-02      0.00000E+00
                             107.0                       2.72000E-02      0.00000E+00
                             108.0                       1.75000E-02      0.00000E+00
                             109.0                       1.17000E-02      0.00000E+00
                             110.0                       6.01000E-03      0.00000E+00
                             111.0                       3.52000E-03      0.00000E+00
                             112.0                       1.82000E-03      0.00000E+00
                             113.0                       1.14000E-03      0.00000E+00
                             114.0                       6.15000E-04      0.00000E+00
                             115.0                       4.02000E-04      0.00000E+00
                             116.0                       3.07000E-04      0.00000E+00
                             117.0                       1.89000E-04      0.00000E+00
                             118.0                       9.46000E-05      0.00000E+00
                             119.0                       2.37000E-04      0.00000E+00
                             120.0                       9.46000E-05      0.00000E+00
                             121.0                       1.89000E-04      0.00000E+00
                             122.0                       3.07000E-04      0.00000E+00
                             123.0                       4.02000E-04      0.00000E+00
                             124.0                       6.15000E-04      0.00000E+00
                             125.0                       1.14000E-03      0.00000E+00
                             126.0                       1.82000E-03      0.00000E+00
                             127.0                       3.52000E-03      0.00000E+00
                             128.0                       6.01000E-03      0.00000E+00
                             129.0                       1.17000E-02      0.00000E+00
                             130.0                       1.75000E-02      0.00000E+00
                             131.0                       2.72000E-02      0.00000E+00
                             132.0                       3.61000E-02      0.00000E+00
                             133.0                       4.28000E-02      0.00000E+00
                             134.0                       5.26000E-02      0.00000E+00
                             135.0                       5.89000E-02      0.00000E+00
                             136.0                       5.99000E-02      0.00000E+00
                             137.0                       6.55000E-02      0.00000E+00
                             138.0                       6.61000E-02      0.00000E+00
                             139.0                       6.39000E-02      0.00000E+00
                             140.0                       5.64000E-02      0.00000E+00
                             141.0                       5.45000E-02      0.00000E+00
                             142.0                       5.60000E-02      0.00000E+00
                             143.0                       5.03000E-02      0.00000E+00
                             144.0                       4.63000E-02      0.00000E+00
                             145.0                       4.14000E-02      0.00000E+00
                             146.0                       3.80000E-02      0.00000E+00
                             147.0                       3.09000E-02      0.00000E+00
                             148.0                       2.59000E-02      0.00000E+00
                             149.0                       2.13000E-02      0.00000E+00
                             150.0                       1.69000E-02      0.00000E+00
                             151.0                       1.25000E-02      0.00000E+00
                             152.0                       9.96000E-03      0.00000E+00
                             153.0                       6.93000E-03      0.00000E+00
                             154.0                       5.56000E-03      0.00000E+00
                             155.0                       4.28000E-03      0.00000E+00
                             156.0                       2.67000E-03      0.00000E+00
                             157.0                       1.51000E-03      0.00000E+00
                             158.0                       1.02000E-03      0.00000E+00
                             159.0                       5.20000E-04      0.00000E+00
                             160.0                       3.78000E-04      0.00000E+00
                             161.0                       2.60000E-04      0.00000E+00
                             162.0                       1.42000E-04      0.00000E+00
                             163.0                       4.73000E-05      0.00000E+00
                             164.0                       0.00000E+00      0.00000E+00
                             165.0                       0.00000E+00      0.00000E+00
                             166.0                       2.36000E-05      0.00000E+00
                             167.0                       0.00000E+00      0.00000E+00
                             168.0                       0.00000E+00      0.00000E+00
                             169.0                       0.00000E+00      0.00000E+00
                             170.0                       0.00000E+00      0.00000E+00
                             171.0                       0.00000E+00      0.00000E+00
                             172.0                       0.00000E+00      0.00000E+00
                             173.0                       0.00000E+00      0.00000E+00
                             174.0                       0.00000E+00      0.00000E+00
                             175.0                       0.00000E+00      0.00000E+00
                             176.0                       0.00000E+00      0.00000E+00
                             177.0                       0.00000E+00      0.00000E+00
                             178.0                       0.00000E+00      0.00000E+00
                             179.0                       0.00000E+00      0.00000E+00
                             180.0                       0.00000E+00      0.00000E+00
