# entry-subent-pointer  : G0025-002-0 
# EXFOR reaction        : ['92-U-238', ['G,F'], 'MASS,PRE,FY,,BRA'] 
# incident energy       : 7.0000e+00 MeV 
# target                : U-238 
# product               : 61.0 <= A <= 180.0 
# level energy          : - 
# MF-MT number          : 8 - 460 
# first author          : A.Goeoek 
# institute             : (2SWDSWD): Sweden 
# reference             : (J,NP/A,851,1,2011) 
# year                  : 2011 
# facility              : (LINAC): Linear accelerator 
# git                   : https://github.com/IAEA-NDS/exfor_master/blob/main/exforall/G00/G0025.x4 
# nds                   : https://nds.iaea.org/EXFOR/G0025
#
# Charge(No Dim.)    Mass(No Dim.)  Isomer(No Dim.)    Yield(%/fiss)   dYield(%/fiss)
                              61.0                       0.00000E+00      0.00000E+00
                              62.0                       0.00000E+00      0.00000E+00
                              63.0                       0.00000E+00      0.00000E+00
                              64.0                       0.00000E+00      0.00000E+00
                              65.0                       0.00000E+00      0.00000E+00
                              66.0                       0.00000E+00      0.00000E+00
                              67.0                       0.00000E+00      0.00000E+00
                              68.0                       0.00000E+00      0.00000E+00
                              69.0                       0.00000E+00      0.00000E+00
                              70.0                       0.00000E+00      0.00000E+00
                              71.0                       0.00000E+00      0.00000E+00
                              72.0                       0.00000E+00      0.00000E+00
                              73.0                       0.00000E+00      0.00000E+00
                              74.0                       0.00000E+00      0.00000E+00
                              75.0                       1.14000E-04      0.00000E+00
                              76.0                       0.00000E+00      0.00000E+00
                              77.0                       2.27000E-04      0.00000E+00
                              78.0                       6.25000E-04      0.00000E+00
                              79.0                       3.98000E-04      0.00000E+00
                              80.0                       9.09000E-04      0.00000E+00
                              81.0                       1.48000E-03      0.00000E+00
                              82.0                       2.44000E-03      0.00000E+00
                              83.0                       3.30000E-03      0.00000E+00
                              84.0                       6.08000E-03      0.00000E+00
                              85.0                       8.70000E-03      0.00000E+00
                              86.0                       9.55000E-03      0.00000E+00
                              87.0                       1.43000E-02      0.00000E+00
                              88.0                       1.67000E-02      0.00000E+00
                              89.0                       2.22000E-02      0.00000E+00
                              90.0                       2.47000E-02      0.00000E+00
                              91.0                       3.06000E-02      0.00000E+00
                              92.0                       3.37000E-02      0.00000E+00
                              93.0                       3.97000E-02      0.00000E+00
                              94.0                       4.29000E-02      0.00000E+00
                              95.0                       4.71000E-02      0.00000E+00
                              96.0                       4.95000E-02      0.00000E+00
                              97.0                       5.62000E-02      0.00000E+00
                              98.0                       5.71000E-02      0.00000E+00
                              99.0                       6.25000E-02      0.00000E+00
                             100.0                       6.57000E-02      0.00000E+00
                             101.0                       6.39000E-02      0.00000E+00
                             102.0                       6.30000E-02      0.00000E+00
                             103.0                       5.67000E-02      0.00000E+00
                             104.0                       5.12000E-02      0.00000E+00
                             105.0                       4.43000E-02      0.00000E+00
                             106.0                       3.81000E-02      0.00000E+00
                             107.0                       3.14000E-02      0.00000E+00
                             108.0                       2.31000E-02      0.00000E+00
                             109.0                       1.30000E-02      0.00000E+00
                             110.0                       7.33000E-03      0.00000E+00
                             111.0                       4.21000E-03      0.00000E+00
                             112.0                       2.67000E-03      0.00000E+00
                             113.0                       1.88000E-03      0.00000E+00
                             114.0                       6.25000E-04      0.00000E+00
                             115.0                       1.19000E-03      0.00000E+00
                             116.0                       2.27000E-04      0.00000E+00
                             117.0                       3.41000E-04      0.00000E+00
                             118.0                       1.14000E-04      0.00000E+00
                             119.0                       1.14000E-04      0.00000E+00
                             120.0                       1.14000E-04      0.00000E+00
                             121.0                       3.41000E-04      0.00000E+00
                             122.0                       2.27000E-04      0.00000E+00
                             123.0                       1.19000E-03      0.00000E+00
                             124.0                       6.25000E-04      0.00000E+00
                             125.0                       1.88000E-03      0.00000E+00
                             126.0                       2.67000E-03      0.00000E+00
                             127.0                       4.21000E-03      0.00000E+00
                             128.0                       7.33000E-03      0.00000E+00
                             129.0                       1.30000E-02      0.00000E+00
                             130.0                       2.31000E-02      0.00000E+00
                             131.0                       3.14000E-02      0.00000E+00
                             132.0                       3.81000E-02      0.00000E+00
                             133.0                       4.43000E-02      0.00000E+00
                             134.0                       5.12000E-02      0.00000E+00
                             135.0                       5.67000E-02      0.00000E+00
                             136.0                       6.30000E-02      0.00000E+00
                             137.0                       6.39000E-02      0.00000E+00
                             138.0                       6.57000E-02      0.00000E+00
                             139.0                       6.25000E-02      0.00000E+00
                             140.0                       5.71000E-02      0.00000E+00
                             141.0                       5.62000E-02      0.00000E+00
                             142.0                       4.95000E-02      0.00000E+00
                             143.0                       4.71000E-02      0.00000E+00
                             144.0                       4.29000E-02      0.00000E+00
                             145.0                       3.97000E-02      0.00000E+00
                             146.0                       3.37000E-02      0.00000E+00
                             147.0                       3.06000E-02      0.00000E+00
                             148.0                       2.47000E-02      0.00000E+00
                             149.0                       2.22000E-02      0.00000E+00
                             150.0                       1.67000E-02      0.00000E+00
                             151.0                       1.43000E-02      0.00000E+00
                             152.0                       9.55000E-03      0.00000E+00
                             153.0                       8.70000E-03      0.00000E+00
                             154.0                       6.08000E-03      0.00000E+00
                             155.0                       3.30000E-03      0.00000E+00
                             156.0                       2.44000E-03      0.00000E+00
                             157.0                       1.48000E-03      0.00000E+00
                             158.0                       9.09000E-04      0.00000E+00
                             159.0                       3.98000E-04      0.00000E+00
                             160.0                       6.25000E-04      0.00000E+00
                             161.0                       2.27000E-04      0.00000E+00
                             162.0                       0.00000E+00      0.00000E+00
                             163.0                       1.14000E-04      0.00000E+00
                             164.0                       0.00000E+00      0.00000E+00
                             165.0                       0.00000E+00      0.00000E+00
                             166.0                       0.00000E+00      0.00000E+00
                             167.0                       0.00000E+00      0.00000E+00
                             168.0                       0.00000E+00      0.00000E+00
                             169.0                       0.00000E+00      0.00000E+00
                             170.0                       0.00000E+00      0.00000E+00
                             171.0                       0.00000E+00      0.00000E+00
                             172.0                       0.00000E+00      0.00000E+00
                             173.0                       0.00000E+00      0.00000E+00
                             174.0                       0.00000E+00      0.00000E+00
                             175.0                       0.00000E+00      0.00000E+00
                             176.0                       0.00000E+00      0.00000E+00
                             177.0                       0.00000E+00      0.00000E+00
                             178.0                       0.00000E+00      0.00000E+00
                             179.0                       0.00000E+00      0.00000E+00
                             180.0                       0.00000E+00      0.00000E+00
