# entry-subent-pointer  : E1975-003-0 
# EXFOR reaction        : (30-ZN-66(P,X)29-CU-61,CUM,SIG) 
# incident energy       : 3.1700e+01 MeV - 9.9500e+01 MeV 
# target                : Zn-66 
# product               : Cu-61 
# level energy          : - 
# MF-MT number          : 3 - 10 
# first author          : Szelecsenyi 
# institute             : (3HUNDEB): Institute for Nuclear Research (ATOMKI), Debrecen 
# reference             : (J,JRN,263,(2),539,200501) 
# year                  : 2005 
# facility              : (CYCLO): Cyclotron 
# git                   : https://github.com/IAEA-NDS/exfor_master/blob/main/exforall/E19/E1975.x4 
# nds                   : https://nds.iaea.org/EXFOR/E1975
#
#       E_in(MeV)         dE_in(MeV)        XS(B)             dXS(B)
        3.1700E+01        1.9200E+00        2.9400E-03        3.2000E-04
        3.4720E+01        1.8000E+00        2.7480E-02        3.0600E-03
        3.7280E+01        1.6900E+00        3.3120E-02        3.6000E-03
        3.9170E+01        1.6200E+00        3.9930E-02        4.4200E-03
        4.2280E+01        1.4900E+00        4.8090E-02        5.2300E-03
        4.3370E+01        1.4500E+00        4.0860E-02        4.4900E-03
        4.6930E+01        1.3100E+00        3.5380E-02        3.8500E-03
        4.7250E+01        1.2900E+00        3.0080E-02        3.2900E-03
        5.0970E+01        1.1500E+00        2.1170E-02        2.3100E-03
        5.1270E+01        1.1300E+00        2.4090E-02        2.6300E-03
        5.4430E+01        1.0100E+00        1.6440E-02        1.7900E-03
        5.5350E+01        9.7000E-01        1.7400E-02        1.9000E-03
        5.7790E+01        8.7000E-01        1.3970E-02        1.5300E-03
        5.9400E+01        8.1000E-01        1.2750E-02        1.4000E-03
        6.0930E+01        7.5000E-01        1.2690E-02        1.3900E-03
        6.2030E+01        2.4200E+00        1.2700E-02        1.4000E-03
        6.3240E+01        6.6000E-01        1.4310E-02        1.5700E-03
        6.4020E+01        6.2000E-01        1.3590E-02        1.4900E-03
        6.6860E+01        2.2400E+00        1.2000E-02        1.3200E-03
        6.6880E+01        5.1000E-01        2.0140E-02        2.0800E-03
        6.6950E+01        5.1000E-01        1.5130E-02        1.6500E-03
        7.1470E+01        2.0700E+00        2.1850E-02        2.3900E-03
        7.5850E+01        1.9100E+00        3.0890E-02        3.3700E-03
        8.0080E+01        1.7500E+00        3.5340E-02        3.8500E-03
        8.4180E+01        1.5900E+00        3.9930E-02        4.3500E-03
        8.8110E+01        1.4500E+00        4.0640E-02        4.4300E-03
        9.2030E+01        1.3000E+00        3.5140E-02        3.8300E-03
        9.5830E+01        1.1600E+00        3.7110E-02        4.0400E-03
        9.9500E+01        1.0200E+00        4.6970E-02        4.8200E-03
