# entry-subent-pointer  : 20151-002-0 
# EXFOR reaction        : (29-CU-63(N,TOT),,SIG) 
# incident energy       : 3.9799e-02 MeV - 1.4328e-01 MeV 
# target                : Cu-63 
# product               : - 
# level energy          : - 
# MF-MT number          : 3 - 1 
# first author          : Rohr 
# institute             : (2GERKFK): Karlsruhe Institute of Technology (KIT) 
# reference             : (P,EANDC(E)-89,1,6802) 
# year                  : 1968 
# facility              : (VDG  ): Van de Graaff 
# git                   : https://github.com/IAEA-NDS/exfor_master/blob/main/exforall/201/20151.x4 
# nds                   : https://nds.iaea.org/EXFOR/20151
#
#       E_in(MeV)         dE_in(MeV)        XS(B)             dXS(B)
        3.9799E-02        0.0000E+00        3.1990E+00        0.0000E+00
        3.9842E-02        0.0000E+00        3.8360E+00        0.0000E+00
        3.9885E-02        0.0000E+00        4.0200E+00        0.0000E+00
        3.9928E-02        0.0000E+00        3.1300E+00        0.0000E+00
        3.9971E-02        0.0000E+00        3.5360E+00        0.0000E+00
        4.0015E-02        0.0000E+00        4.0720E+00        0.0000E+00
        4.0058E-02        0.0000E+00        4.6590E+00        0.0000E+00
        4.0101E-02        0.0000E+00        4.3930E+00        0.0000E+00
        4.0145E-02        0.0000E+00        4.2040E+00        0.0000E+00
        4.0188E-02        0.0000E+00        4.8730E+00        0.0000E+00
        4.0232E-02        0.0000E+00        5.3490E+00        0.0000E+00
        4.0275E-02        0.0000E+00        7.0900E+00        0.0000E+00
        4.0319E-02        0.0000E+00        5.2660E+00        0.0000E+00
        4.0363E-02        0.0000E+00        5.0950E+00        0.0000E+00
        4.0407E-02        0.0000E+00        3.7110E+00        0.0000E+00
        4.0451E-02        0.0000E+00        4.3060E+00        0.0000E+00
        4.0495E-02        0.0000E+00        4.0160E+00        0.0000E+00
        4.0539E-02        0.0000E+00        4.3940E+00        0.0000E+00
        4.0583E-02        0.0000E+00        6.2920E+00        0.0000E+00
        4.0627E-02        0.0000E+00        6.6260E+00        0.0000E+00
        4.0671E-02        0.0000E+00        6.3420E+00        0.0000E+00
        4.0716E-02        0.0000E+00        5.4300E+00        0.0000E+00
        4.0760E-02        0.0000E+00        5.5690E+00        0.0000E+00
        4.0805E-02        0.0000E+00        4.3570E+00        0.0000E+00
        4.0849E-02        0.0000E+00        4.1510E+00        0.0000E+00
        4.0894E-02        0.0000E+00        3.3690E+00        0.0000E+00
        4.0939E-02        0.0000E+00        3.9580E+00        0.0000E+00
        4.0984E-02        0.0000E+00        3.6690E+00        0.0000E+00
        4.1028E-02        0.0000E+00        3.0340E+00        0.0000E+00
        4.1073E-02        0.0000E+00        2.9300E+00        0.0000E+00
        4.1118E-02        0.0000E+00        3.5200E+00        0.0000E+00
        4.1163E-02        0.0000E+00        3.4190E+00        0.0000E+00
        4.1209E-02        0.0000E+00        2.4690E+00        0.0000E+00
        4.1254E-02        0.0000E+00        2.8220E+00        0.0000E+00
        4.1299E-02        0.0000E+00        2.3450E+00        0.0000E+00
        4.1345E-02        0.0000E+00        1.4780E+00        0.0000E+00
        4.1390E-02        0.0000E+00        2.1770E+00        0.0000E+00
        4.1436E-02        0.0000E+00        1.0770E+00        0.0000E+00
        4.1481E-02        0.0000E+00        4.5360E-01        0.0000E+00
        4.1527E-02        0.0000E+00        1.5010E+00        0.0000E+00
        4.1573E-02        0.0000E+00        4.9770E-01        0.0000E+00
        4.1619E-02        0.0000E+00        7.1630E-01        0.0000E+00
        4.1665E-02        0.0000E+00        2.4180E+00        0.0000E+00
        4.1711E-02        0.0000E+00        7.9300E-01        0.0000E+00
        4.1757E-02        0.0000E+00        2.0150E+00        0.0000E+00
        4.1803E-02        0.0000E+00        3.3380E+00        0.0000E+00
        4.1849E-02        0.0000E+00        5.5120E+00        0.0000E+00
        4.1895E-02        0.0000E+00        9.2960E+00        0.0000E+00
        4.1942E-02        0.0000E+00        1.5810E+01        0.0000E+00
        4.1988E-02        0.0000E+00        2.1130E+01        0.0000E+00
        4.2035E-02        0.0000E+00        2.5460E+01        0.0000E+00
        4.2081E-02        0.0000E+00        2.5320E+01        0.0000E+00
        4.2128E-02        0.0000E+00        2.2850E+01        0.0000E+00
        4.2175E-02        0.0000E+00        1.8780E+01        0.0000E+00
        4.2222E-02        0.0000E+00        1.5620E+01        0.0000E+00
        4.2269E-02        0.0000E+00        1.5130E+01        0.0000E+00
        4.2316E-02        0.0000E+00        1.4830E+01        0.0000E+00
        4.2363E-02        0.0000E+00        1.5410E+01        0.0000E+00
        4.2410E-02        0.0000E+00        1.9040E+01        0.0000E+00
        4.2457E-02        0.0000E+00        2.1320E+01        0.0000E+00
        4.2504E-02        0.0000E+00        2.4570E+01        0.0000E+00
        4.2552E-02        0.0000E+00        2.5290E+01        0.0000E+00
        4.2599E-02        0.0000E+00        2.5180E+01        0.0000E+00
        4.2647E-02        0.0000E+00        2.4650E+01        0.0000E+00
        4.2695E-02        0.0000E+00        2.0860E+01        0.0000E+00
        4.2742E-02        0.0000E+00        1.8930E+01        0.0000E+00
        4.2790E-02        0.0000E+00        1.6000E+01        0.0000E+00
        4.2838E-02        0.0000E+00        1.6030E+01        0.0000E+00
        4.2886E-02        0.0000E+00        1.3720E+01        0.0000E+00
        4.2934E-02        0.0000E+00        1.2280E+01        0.0000E+00
        4.2982E-02        0.0000E+00        1.1190E+01        0.0000E+00
        4.3030E-02        0.0000E+00        1.1480E+01        0.0000E+00
        4.3079E-02        0.0000E+00        9.8750E+00        0.0000E+00
        4.3127E-02        0.0000E+00        8.6520E+00        0.0000E+00
        4.3175E-02        0.0000E+00        9.0150E+00        0.0000E+00
        4.3224E-02        0.0000E+00        9.3260E+00        0.0000E+00
        4.3272E-02        0.0000E+00        8.4880E+00        0.0000E+00
        4.3321E-02        0.0000E+00        8.8630E+00        0.0000E+00
        4.3370E-02        0.0000E+00        7.7650E+00        0.0000E+00
        4.3419E-02        0.0000E+00        7.0780E+00        0.0000E+00
        4.3468E-02        0.0000E+00        7.6920E+00        0.0000E+00
        4.3517E-02        0.0000E+00        8.1040E+00        0.0000E+00
        4.3566E-02        0.0000E+00        6.6320E+00        0.0000E+00
        4.3615E-02        0.0000E+00        6.5550E+00        0.0000E+00
        4.3664E-02        0.0000E+00        6.3320E+00        0.0000E+00
        4.3714E-02        0.0000E+00        7.4280E+00        0.0000E+00
        4.3763E-02        0.0000E+00        6.6540E+00        0.0000E+00
        4.3813E-02        0.0000E+00        7.0940E+00        0.0000E+00
        4.3862E-02        0.0000E+00        7.3510E+00        0.0000E+00
        4.3912E-02        0.0000E+00        6.6180E+00        0.0000E+00
        4.3962E-02        0.0000E+00        6.6970E+00        0.0000E+00
        4.4012E-02        0.0000E+00        6.8750E+00        0.0000E+00
        4.4062E-02        0.0000E+00        7.3360E+00        0.0000E+00
        4.4112E-02        0.0000E+00        7.0980E+00        0.0000E+00
        4.4162E-02        0.0000E+00        6.3520E+00        0.0000E+00
        4.4212E-02        0.0000E+00        6.5560E+00        0.0000E+00
        4.4262E-02        0.0000E+00        5.6120E+00        0.0000E+00
        4.4313E-02        0.0000E+00        5.2650E+00        0.0000E+00
        4.4363E-02        0.0000E+00        5.1420E+00        0.0000E+00
        4.4414E-02        0.0000E+00        5.2610E+00        0.0000E+00
        4.4464E-02        0.0000E+00        5.1910E+00        0.0000E+00
        4.4515E-02        0.0000E+00        4.6600E+00        0.0000E+00
        4.4566E-02        0.0000E+00        5.2960E+00        0.0000E+00
        4.4617E-02        0.0000E+00        6.2670E+00        0.0000E+00
        4.4668E-02        0.0000E+00        7.5620E+00        0.0000E+00
        4.4719E-02        0.0000E+00        8.6240E+00        0.0000E+00
        4.4770E-02        0.0000E+00        1.0830E+01        0.0000E+00
        4.4821E-02        0.0000E+00        1.1670E+01        0.0000E+00
        4.4872E-02        0.0000E+00        1.1570E+01        0.0000E+00
        4.4924E-02        0.0000E+00        9.8950E+00        0.0000E+00
        4.4975E-02        0.0000E+00        7.9660E+00        0.0000E+00
        4.5027E-02        0.0000E+00        8.4720E+00        0.0000E+00
        4.5079E-02        0.0000E+00        7.6430E+00        0.0000E+00
        4.5130E-02        0.0000E+00        6.4660E+00        0.0000E+00
        4.5182E-02        0.0000E+00        7.4350E+00        0.0000E+00
        4.5234E-02        0.0000E+00        6.4700E+00        0.0000E+00
        4.5286E-02        0.0000E+00        6.9970E+00        0.0000E+00
        4.5338E-02        0.0000E+00        6.7100E+00        0.0000E+00
        4.5391E-02        0.0000E+00        5.9110E+00        0.0000E+00
        4.5443E-02        0.0000E+00        6.7770E+00        0.0000E+00
        4.5495E-02        0.0000E+00        6.1920E+00        0.0000E+00
        4.5548E-02        0.0000E+00        6.7970E+00        0.0000E+00
        4.5600E-02        0.0000E+00        5.6980E+00        0.0000E+00
        4.5653E-02        0.0000E+00        5.0140E+00        0.0000E+00
        4.5706E-02        0.0000E+00        6.3390E+00        0.0000E+00
        4.5759E-02        0.0000E+00        5.4150E+00        0.0000E+00
        4.5812E-02        0.0000E+00        6.1800E+00        0.0000E+00
        4.5865E-02        0.0000E+00        4.9810E+00        0.0000E+00
        4.5918E-02        0.0000E+00        6.4860E+00        0.0000E+00
        4.5971E-02        0.0000E+00        5.4240E+00        0.0000E+00
        4.6024E-02        0.0000E+00        5.5630E+00        0.0000E+00
        4.6078E-02        0.0000E+00        4.4500E+00        0.0000E+00
        4.6131E-02        0.0000E+00        5.0800E+00        0.0000E+00
        4.6185E-02        0.0000E+00        5.1180E+00        0.0000E+00
        4.6239E-02        0.0000E+00        4.3750E+00        0.0000E+00
        4.6292E-02        0.0000E+00        5.3240E+00        0.0000E+00
        4.6346E-02        0.0000E+00        5.0050E+00        0.0000E+00
        4.6400E-02        0.0000E+00        4.8160E+00        0.0000E+00
        4.6454E-02        0.0000E+00        5.1380E+00        0.0000E+00
        4.6508E-02        0.0000E+00        4.7370E+00        0.0000E+00
        4.6563E-02        0.0000E+00        5.3330E+00        0.0000E+00
        4.6617E-02        0.0000E+00        4.5890E+00        0.0000E+00
        4.6671E-02        0.0000E+00        5.0520E+00        0.0000E+00
        4.6726E-02        0.0000E+00        4.5750E+00        0.0000E+00
        4.6781E-02        0.0000E+00        4.7280E+00        0.0000E+00
        4.6835E-02        0.0000E+00        4.4910E+00        0.0000E+00
        4.6890E-02        0.0000E+00        4.1680E+00        0.0000E+00
        4.6945E-02        0.0000E+00        3.9750E+00        0.0000E+00
        4.7000E-02        0.0000E+00        4.4570E+00        0.0000E+00
        4.7055E-02        0.0000E+00        4.2030E+00        0.0000E+00
        4.7111E-02        0.0000E+00        4.2520E+00        0.0000E+00
        4.7166E-02        0.0000E+00        3.9940E+00        0.0000E+00
        4.7221E-02        0.0000E+00        4.3660E+00        0.0000E+00
        4.7277E-02        0.0000E+00        4.4000E+00        0.0000E+00
        4.7332E-02        0.0000E+00        4.8660E+00        0.0000E+00
        4.7388E-02        0.0000E+00        5.9070E+00        0.0000E+00
        4.7444E-02        0.0000E+00        6.2620E+00        0.0000E+00
        4.7500E-02        0.0000E+00        5.6030E+00        0.0000E+00
        4.7556E-02        0.0000E+00        6.1360E+00        0.0000E+00
        4.7612E-02        0.0000E+00        5.3700E+00        0.0000E+00
        4.7668E-02        0.0000E+00        6.0890E+00        0.0000E+00
        4.7724E-02        0.0000E+00        6.7750E+00        0.0000E+00
        4.7781E-02        0.0000E+00        8.2760E+00        0.0000E+00
        4.7837E-02        0.0000E+00        7.5710E+00        0.0000E+00
        4.7894E-02        0.0000E+00        7.0240E+00        0.0000E+00
        4.7951E-02        0.0000E+00        5.7530E+00        0.0000E+00
        4.8007E-02        0.0000E+00        5.4630E+00        0.0000E+00
        4.8064E-02        0.0000E+00        6.5800E+00        0.0000E+00
        4.8121E-02        0.0000E+00        5.2940E+00        0.0000E+00
        4.8178E-02        0.0000E+00        5.3080E+00        0.0000E+00
        4.8236E-02        0.0000E+00        5.4790E+00        0.0000E+00
        4.8293E-02        0.0000E+00        5.3870E+00        0.0000E+00
        4.8350E-02        0.0000E+00        5.0690E+00        0.0000E+00
        4.8408E-02        0.0000E+00        4.3740E+00        0.0000E+00
        4.8465E-02        0.0000E+00        4.4460E+00        0.0000E+00
        4.8523E-02        0.0000E+00        4.4300E+00        0.0000E+00
        4.8581E-02        0.0000E+00        3.8950E+00        0.0000E+00
        4.8639E-02        0.0000E+00        4.4320E+00        0.0000E+00
        4.8697E-02        0.0000E+00        3.3250E+00        0.0000E+00
        4.8755E-02        0.0000E+00        4.5970E+00        0.0000E+00
        4.8813E-02        0.0000E+00        3.7600E+00        0.0000E+00
        4.8872E-02        0.0000E+00        4.3980E+00        0.0000E+00
        4.8930E-02        0.0000E+00        3.2080E+00        0.0000E+00
        4.8989E-02        0.0000E+00        3.7130E+00        0.0000E+00
        4.9047E-02        0.0000E+00        3.5330E+00        0.0000E+00
        4.9106E-02        0.0000E+00        2.6110E+00        0.0000E+00
        4.9165E-02        0.0000E+00        4.0450E+00        0.0000E+00
        4.9224E-02        0.0000E+00        3.0950E+00        0.0000E+00
        4.9283E-02        0.0000E+00        3.5180E+00        0.0000E+00
        4.9342E-02        0.0000E+00        3.9530E+00        0.0000E+00
        4.9401E-02        0.0000E+00        2.9250E+00        0.0000E+00
        4.9461E-02        0.0000E+00        2.8450E+00        0.0000E+00
        4.9520E-02        0.0000E+00        3.5740E+00        0.0000E+00
        4.9580E-02        0.0000E+00        2.9070E+00        0.0000E+00
        4.9640E-02        0.0000E+00        2.6920E+00        0.0000E+00
        4.9700E-02        0.0000E+00        2.3330E+00        0.0000E+00
        4.9759E-02        0.0000E+00        3.2890E+00        0.0000E+00
        4.9820E-02        0.0000E+00        2.7650E+00        0.0000E+00
        4.9880E-02        0.0000E+00        2.5360E+00        0.0000E+00
        4.9940E-02        0.0000E+00        2.3800E+00        0.0000E+00
        5.0000E-02        0.0000E+00        3.0750E+00        0.0000E+00
        5.0061E-02        0.0000E+00        3.2110E+00        0.0000E+00
        5.0121E-02        0.0000E+00        5.0470E+00        0.0000E+00
        5.0182E-02        0.0000E+00        7.0950E+00        0.0000E+00
        5.0243E-02        0.0000E+00        1.0960E+01        0.0000E+00
        5.0304E-02        0.0000E+00        1.1280E+01        0.0000E+00
        5.0365E-02        0.0000E+00        1.1320E+01        0.0000E+00
        5.0426E-02        0.0000E+00        8.9790E+00        0.0000E+00
        5.0487E-02        0.0000E+00        7.5360E+00        0.0000E+00
        5.0549E-02        0.0000E+00        5.3220E+00        0.0000E+00
        5.0610E-02        0.0000E+00        6.1270E+00        0.0000E+00
        5.0672E-02        0.0000E+00        5.1030E+00        0.0000E+00
        5.0733E-02        0.0000E+00        4.8810E+00        0.0000E+00
        5.0795E-02        0.0000E+00        3.5240E+00        0.0000E+00
        5.0857E-02        0.0000E+00        4.5640E+00        0.0000E+00
        5.0919E-02        0.0000E+00        3.5570E+00        0.0000E+00
        5.0981E-02        0.0000E+00        3.3560E+00        0.0000E+00
        5.1044E-02        0.0000E+00        3.1760E+00        0.0000E+00
        5.1106E-02        0.0000E+00        3.2710E+00        0.0000E+00
        5.1169E-02        0.0000E+00        3.3920E+00        0.0000E+00
        5.1231E-02        0.0000E+00        2.9290E+00        0.0000E+00
        5.1294E-02        0.0000E+00        3.0730E+00        0.0000E+00
        5.1357E-02        0.0000E+00        2.4240E+00        0.0000E+00
        5.1420E-02        0.0000E+00        3.3920E+00        0.0000E+00
        5.1483E-02        0.0000E+00        3.0330E+00        0.0000E+00
        5.1546E-02        0.0000E+00        2.6000E+00        0.0000E+00
        5.1609E-02        0.0000E+00        1.7990E+00        0.0000E+00
        5.1673E-02        0.0000E+00        2.3890E+00        0.0000E+00
        5.1736E-02        0.0000E+00        1.6270E+00        0.0000E+00
        5.1800E-02        0.0000E+00        2.6800E+00        0.0000E+00
        5.1864E-02        0.0000E+00        1.7280E+00        0.0000E+00
        5.1928E-02        0.0000E+00        1.9670E+00        0.0000E+00
        5.1992E-02        0.0000E+00        2.4400E+00        0.0000E+00
        5.2056E-02        0.0000E+00        2.9050E+00        0.0000E+00
        5.2120E-02        0.0000E+00        2.2000E+00        0.0000E+00
        5.2184E-02        0.0000E+00        1.8000E+00        0.0000E+00
        5.2249E-02        0.0000E+00        2.5710E+00        0.0000E+00
        5.2313E-02        0.0000E+00        2.8440E+00        0.0000E+00
        5.2378E-02        0.0000E+00        1.8300E+00        0.0000E+00
        5.2443E-02        0.0000E+00        2.2590E+00        0.0000E+00
        5.2508E-02        0.0000E+00        1.4770E+00        0.0000E+00
        5.2573E-02        0.0000E+00        2.0490E+00        0.0000E+00
        5.2638E-02        0.0000E+00        2.1690E+00        0.0000E+00
        5.2704E-02        0.0000E+00        2.3210E+00        0.0000E+00
        5.2769E-02        0.0000E+00        1.8260E+00        0.0000E+00
        5.2835E-02        0.0000E+00        2.1900E+00        0.0000E+00
        5.2900E-02        0.0000E+00        2.9770E+00        0.0000E+00
        5.2966E-02        0.0000E+00        3.3340E+00        0.0000E+00
        5.3032E-02        0.0000E+00        4.7340E+00        0.0000E+00
        5.3098E-02        0.0000E+00        7.2860E+00        0.0000E+00
        5.3164E-02        0.0000E+00        8.6170E+00        0.0000E+00
        5.3231E-02        0.0000E+00        7.9400E+00        0.0000E+00
        5.3297E-02        0.0000E+00        7.2750E+00        0.0000E+00
        5.3364E-02        0.0000E+00        8.6600E+00        0.0000E+00
        5.3430E-02        0.0000E+00        8.8780E+00        0.0000E+00
        5.3497E-02        0.0000E+00        9.1190E+00        0.0000E+00
        5.3564E-02        0.0000E+00        1.1600E+01        0.0000E+00
        5.3631E-02        0.0000E+00        1.3720E+01        0.0000E+00
        5.3698E-02        0.0000E+00        1.5670E+01        0.0000E+00
        5.3766E-02        0.0000E+00        1.7080E+01        0.0000E+00
        5.3833E-02        0.0000E+00        1.8290E+01        0.0000E+00
        5.3901E-02        0.0000E+00        1.7000E+01        0.0000E+00
        5.3968E-02        0.0000E+00        1.5990E+01        0.0000E+00
        5.4036E-02        0.0000E+00        1.5140E+01        0.0000E+00
        5.4104E-02        0.0000E+00        1.2180E+01        0.0000E+00
        5.4172E-02        0.0000E+00        9.7450E+00        0.0000E+00
        5.4241E-02        0.0000E+00        7.5630E+00        0.0000E+00
        5.4309E-02        0.0000E+00        6.2240E+00        0.0000E+00
        5.4377E-02        0.0000E+00        4.7270E+00        0.0000E+00
        5.4446E-02        0.0000E+00        4.6030E+00        0.0000E+00
        5.4515E-02        0.0000E+00        3.1030E+00        0.0000E+00
        5.4584E-02        0.0000E+00        3.9710E+00        0.0000E+00
        5.4653E-02        0.0000E+00        6.1490E+00        0.0000E+00
        5.4722E-02        0.0000E+00        7.1720E+00        0.0000E+00
        5.4791E-02        0.0000E+00        1.2940E+01        0.0000E+00
        5.4860E-02        0.0000E+00        1.7910E+01        0.0000E+00
        5.4930E-02        0.0000E+00        2.3270E+01        0.0000E+00
        5.4999E-02        0.0000E+00        2.6630E+01        0.0000E+00
        5.5069E-02        0.0000E+00        2.5080E+01        0.0000E+00
        5.5139E-02        0.0000E+00        2.5560E+01        0.0000E+00
        5.5209E-02        0.0000E+00        2.4060E+01        0.0000E+00
        5.5279E-02        0.0000E+00        2.4720E+01        0.0000E+00
        5.5350E-02        0.0000E+00        2.4870E+01        0.0000E+00
        5.5420E-02        0.0000E+00        2.5660E+01        0.0000E+00
        5.5491E-02        0.0000E+00        2.4390E+01        0.0000E+00
        5.5561E-02        0.0000E+00        2.3810E+01        0.0000E+00
        5.5632E-02        0.0000E+00        2.1980E+01        0.0000E+00
        5.5703E-02        0.0000E+00        1.9750E+01        0.0000E+00
        5.5774E-02        0.0000E+00        1.7730E+01        0.0000E+00
        5.5846E-02        0.0000E+00        1.6860E+01        0.0000E+00
        5.5917E-02        0.0000E+00        1.5420E+01        0.0000E+00
        5.5989E-02        0.0000E+00        1.4370E+01        0.0000E+00
        5.6060E-02        0.0000E+00        1.3510E+01        0.0000E+00
        5.6132E-02        0.0000E+00        1.3680E+01        0.0000E+00
        5.6204E-02        0.0000E+00        1.5760E+01        0.0000E+00
        5.6276E-02        0.0000E+00        1.8650E+01        0.0000E+00
        5.6348E-02        0.0000E+00        2.1430E+01        0.0000E+00
        5.6421E-02        0.0000E+00        2.1380E+01        0.0000E+00
        5.6493E-02        0.0000E+00        1.9200E+01        0.0000E+00
        5.6566E-02        0.0000E+00        1.6130E+01        0.0000E+00
        5.6639E-02        0.0000E+00        1.5090E+01        0.0000E+00
        5.6712E-02        0.0000E+00        1.3330E+01        0.0000E+00
        5.6785E-02        0.0000E+00        1.2780E+01        0.0000E+00
        5.6858E-02        0.0000E+00        1.2940E+01        0.0000E+00
        5.6931E-02        0.0000E+00        1.1660E+01        0.0000E+00
        5.7005E-02        0.0000E+00        1.1060E+01        0.0000E+00
        5.7078E-02        0.0000E+00        1.0210E+01        0.0000E+00
        5.7152E-02        0.0000E+00        9.9980E+00        0.0000E+00
        5.7226E-02        0.0000E+00        9.7780E+00        0.0000E+00
        5.7300E-02        0.0000E+00        8.0920E+00        0.0000E+00
        5.7374E-02        0.0000E+00        9.6330E+00        0.0000E+00
        5.7449E-02        0.0000E+00        8.7400E+00        0.0000E+00
        5.7523E-02        0.0000E+00        8.9580E+00        0.0000E+00
        5.7598E-02        0.0000E+00        9.5140E+00        0.0000E+00
        5.7673E-02        0.0000E+00        9.8780E+00        0.0000E+00
        5.7747E-02        0.0000E+00        8.7270E+00        0.0000E+00
        5.7823E-02        0.0000E+00        8.5900E+00        0.0000E+00
        5.7898E-02        0.0000E+00        7.4070E+00        0.0000E+00
        5.7973E-02        0.0000E+00        7.1180E+00        0.0000E+00
        5.8049E-02        0.0000E+00        6.7440E+00        0.0000E+00
        5.8124E-02        0.0000E+00        6.9610E+00        0.0000E+00
        5.8200E-02        0.0000E+00        7.0120E+00        0.0000E+00
        5.8276E-02        0.0000E+00        6.9880E+00        0.0000E+00
        5.8352E-02        0.0000E+00        9.5560E+00        0.0000E+00
        5.8428E-02        0.0000E+00        1.1330E+01        0.0000E+00
        5.8505E-02        0.0000E+00        1.3050E+01        0.0000E+00
        5.8581E-02        0.0000E+00        1.2580E+01        0.0000E+00
        5.8658E-02        0.0000E+00        1.0220E+01        0.0000E+00
        5.8735E-02        0.0000E+00        8.5800E+00        0.0000E+00
        5.8812E-02        0.0000E+00        8.1820E+00        0.0000E+00
        5.8889E-02        0.0000E+00        7.3110E+00        0.0000E+00
        5.8966E-02        0.0000E+00        7.4580E+00        0.0000E+00
        5.9044E-02        0.0000E+00        8.2260E+00        0.0000E+00
        5.9122E-02        0.0000E+00        8.4420E+00        0.0000E+00
        5.9199E-02        0.0000E+00        9.4990E+00        0.0000E+00
        5.9277E-02        0.0000E+00        9.1030E+00        0.0000E+00
        5.9355E-02        0.0000E+00        8.6430E+00        0.0000E+00
        5.9434E-02        0.0000E+00        9.1400E+00        0.0000E+00
        5.9512E-02        0.0000E+00        8.9490E+00        0.0000E+00
        5.9591E-02        0.0000E+00        8.9810E+00        0.0000E+00
        5.9669E-02        0.0000E+00        8.3890E+00        0.0000E+00
        5.9748E-02        0.0000E+00        8.0070E+00        0.0000E+00
        5.9827E-02        0.0000E+00        8.5290E+00        0.0000E+00
        5.9906E-02        0.0000E+00        8.3330E+00        0.0000E+00
        5.9986E-02        0.0000E+00        8.0530E+00        0.0000E+00
        6.0065E-02        0.0000E+00        7.5080E+00        0.0000E+00
        6.0145E-02        0.0000E+00        7.1180E+00        0.0000E+00
        6.0225E-02        0.0000E+00        7.4290E+00        0.0000E+00
        6.0304E-02        0.0000E+00        7.8890E+00        0.0000E+00
        6.0385E-02        0.0000E+00        7.9500E+00        0.0000E+00
        6.0465E-02        0.0000E+00        7.9130E+00        0.0000E+00
        6.0545E-02        0.0000E+00        7.0820E+00        0.0000E+00
        6.0626E-02        0.0000E+00        6.9490E+00        0.0000E+00
        6.0707E-02        0.0000E+00        6.5840E+00        0.0000E+00
        6.0788E-02        0.0000E+00        6.3620E+00        0.0000E+00
        6.0869E-02        0.0000E+00        6.1290E+00        0.0000E+00
        6.0950E-02        0.0000E+00        6.2410E+00        0.0000E+00
        6.1031E-02        0.0000E+00        5.8290E+00        0.0000E+00
        6.1113E-02        0.0000E+00        5.1270E+00        0.0000E+00
        6.1195E-02        0.0000E+00        5.9770E+00        0.0000E+00
        6.1277E-02        0.0000E+00        5.8800E+00        0.0000E+00
        6.1359E-02        0.0000E+00        5.7500E+00        0.0000E+00
        6.1441E-02        0.0000E+00        5.1740E+00        0.0000E+00
        6.1523E-02        0.0000E+00        5.1800E+00        0.0000E+00
        6.1606E-02        0.0000E+00        5.5710E+00        0.0000E+00
        6.1689E-02        0.0000E+00        4.7290E+00        0.0000E+00
        6.1771E-02        0.0000E+00        5.4740E+00        0.0000E+00
        6.1854E-02        0.0000E+00        4.7530E+00        0.0000E+00
        6.1938E-02        0.0000E+00        5.8930E+00        0.0000E+00
        6.2021E-02        0.0000E+00        5.1400E+00        0.0000E+00
        6.2105E-02        0.0000E+00        5.8830E+00        0.0000E+00
        6.2188E-02        0.0000E+00        4.7110E+00        0.0000E+00
        6.2272E-02        0.0000E+00        4.4680E+00        0.0000E+00
        6.2356E-02        0.0000E+00        4.7210E+00        0.0000E+00
        6.2441E-02        0.0000E+00        3.9700E+00        0.0000E+00
        6.2525E-02        0.0000E+00        4.1700E+00        0.0000E+00
        6.2610E-02        0.0000E+00        3.6430E+00        0.0000E+00
        6.2694E-02        0.0000E+00        4.8020E+00        0.0000E+00
        6.2779E-02        0.0000E+00        3.7040E+00        0.0000E+00
        6.2864E-02        0.0000E+00        2.9850E+00        0.0000E+00
        6.2950E-02        0.0000E+00        4.8090E+00        0.0000E+00
        6.3035E-02        0.0000E+00        3.7380E+00        0.0000E+00
        6.3121E-02        0.0000E+00        5.3780E+00        0.0000E+00
        6.3207E-02        0.0000E+00        8.0640E+00        0.0000E+00
        6.3293E-02        0.0000E+00        9.9100E+00        0.0000E+00
        6.3379E-02        0.0000E+00        9.4130E+00        0.0000E+00
        6.3465E-02        0.0000E+00        7.8000E+00        0.0000E+00
        6.3552E-02        0.0000E+00        5.8020E+00        0.0000E+00
        6.3638E-02        0.0000E+00        6.0830E+00        0.0000E+00
        6.3725E-02        0.0000E+00        5.1890E+00        0.0000E+00
        6.3812E-02        0.0000E+00        4.3800E+00        0.0000E+00
        6.3899E-02        0.0000E+00        3.8450E+00        0.0000E+00
        6.3987E-02        0.0000E+00        4.0270E+00        0.0000E+00
        6.4074E-02        0.0000E+00        3.7580E+00        0.0000E+00
        6.4162E-02        0.0000E+00        3.8700E+00        0.0000E+00
        6.4250E-02        0.0000E+00        3.3640E+00        0.0000E+00
        6.4338E-02        0.0000E+00        3.4540E+00        0.0000E+00
        6.4426E-02        0.0000E+00        3.4970E+00        0.0000E+00
        6.4515E-02        0.0000E+00        3.3410E+00        0.0000E+00
        6.4604E-02        0.0000E+00        4.0450E+00        0.0000E+00
        6.4692E-02        0.0000E+00        4.6630E+00        0.0000E+00
        6.4781E-02        0.0000E+00        6.0350E+00        0.0000E+00
        6.4871E-02        0.0000E+00        8.7420E+00        0.0000E+00
        6.4960E-02        0.0000E+00        1.0680E+01        0.0000E+00
        6.5050E-02        0.0000E+00        1.2860E+01        0.0000E+00
        6.5139E-02        0.0000E+00        1.1400E+01        0.0000E+00
        6.5229E-02        0.0000E+00        1.1350E+01        0.0000E+00
        6.5319E-02        0.0000E+00        1.0270E+01        0.0000E+00
        6.5410E-02        0.0000E+00        8.8610E+00        0.0000E+00
        6.5500E-02        0.0000E+00        7.3660E+00        0.0000E+00
        6.5591E-02        0.0000E+00        6.4150E+00        0.0000E+00
        6.5682E-02        0.0000E+00        5.2000E+00        0.0000E+00
        6.5773E-02        0.0000E+00        5.0120E+00        0.0000E+00
        6.5864E-02        0.0000E+00        4.5950E+00        0.0000E+00
        6.5956E-02        0.0000E+00        4.1070E+00        0.0000E+00
        6.6047E-02        0.0000E+00        5.6550E+00        0.0000E+00
        6.6139E-02        0.0000E+00        7.7530E+00        0.0000E+00
        6.6231E-02        0.0000E+00        9.7980E+00        0.0000E+00
        6.6323E-02        0.0000E+00        1.3060E+01        0.0000E+00
        6.6416E-02        0.0000E+00        1.3420E+01        0.0000E+00
        6.6508E-02        0.0000E+00        1.3540E+01        0.0000E+00
        6.6601E-02        0.0000E+00        1.2320E+01        0.0000E+00
        6.6694E-02        0.0000E+00        1.0780E+01        0.0000E+00
        6.6787E-02        0.0000E+00        1.0780E+01        0.0000E+00
        6.6881E-02        0.0000E+00        9.8710E+00        0.0000E+00
        6.6974E-02        0.0000E+00        8.9860E+00        0.0000E+00
        6.7068E-02        0.0000E+00        8.3520E+00        0.0000E+00
        6.7162E-02        0.0000E+00        7.8600E+00        0.0000E+00
        6.7256E-02        0.0000E+00        7.6410E+00        0.0000E+00
        6.7351E-02        0.0000E+00        6.5860E+00        0.0000E+00
        6.7445E-02        0.0000E+00        6.2040E+00        0.0000E+00
        6.7540E-02        0.0000E+00        6.1540E+00        0.0000E+00
        6.7635E-02        0.0000E+00        5.9790E+00        0.0000E+00
        6.7730E-02        0.0000E+00        5.5870E+00        0.0000E+00
        6.7825E-02        0.0000E+00        5.6880E+00        0.0000E+00
        6.7921E-02        0.0000E+00        5.6900E+00        0.0000E+00
        6.8017E-02        0.0000E+00        5.7280E+00        0.0000E+00
        6.8113E-02        0.0000E+00        5.2270E+00        0.0000E+00
        6.8209E-02        0.0000E+00        4.6740E+00        0.0000E+00
        6.8305E-02        0.0000E+00        4.7090E+00        0.0000E+00
        6.8402E-02        0.0000E+00        5.0620E+00        0.0000E+00
        6.8499E-02        0.0000E+00        3.9720E+00        0.0000E+00
        6.8596E-02        0.0000E+00        4.6670E+00        0.0000E+00
        6.8693E-02        0.0000E+00        4.1910E+00        0.0000E+00
        6.8790E-02        0.0000E+00        3.9530E+00        0.0000E+00
        6.8888E-02        0.0000E+00        4.1110E+00        0.0000E+00
        6.8986E-02        0.0000E+00        5.1900E+00        0.0000E+00
        6.9084E-02        0.0000E+00        4.3350E+00        0.0000E+00
        6.9182E-02        0.0000E+00        3.9080E+00        0.0000E+00
        6.9281E-02        0.0000E+00        3.7060E+00        0.0000E+00
        6.9379E-02        0.0000E+00        4.0060E+00        0.0000E+00
        6.9478E-02        0.0000E+00        4.9090E+00        0.0000E+00
        6.9577E-02        0.0000E+00        7.1240E+00        0.0000E+00
        6.9676E-02        0.0000E+00        9.3800E+00        0.0000E+00
        6.9776E-02        0.0000E+00        1.0580E+01        0.0000E+00
        6.9876E-02        0.0000E+00        9.3410E+00        0.0000E+00
        6.9976E-02        0.0000E+00        7.8130E+00        0.0000E+00
        7.0076E-02        0.0000E+00        6.1880E+00        0.0000E+00
        7.0176E-02        0.0000E+00        6.0120E+00        0.0000E+00
        7.0277E-02        0.0000E+00        5.0170E+00        0.0000E+00
        7.0378E-02        0.0000E+00        5.3100E+00        0.0000E+00
        7.0479E-02        0.0000E+00        4.5830E+00        0.0000E+00
        7.0580E-02        0.0000E+00        4.4780E+00        0.0000E+00
        7.0681E-02        0.0000E+00        4.1950E+00        0.0000E+00
        7.0783E-02        0.0000E+00        3.3920E+00        0.0000E+00
        7.0885E-02        0.0000E+00        3.4800E+00        0.0000E+00
        7.0987E-02        0.0000E+00        3.5840E+00        0.0000E+00
        7.1089E-02        0.0000E+00        4.2900E+00        0.0000E+00
        7.1192E-02        0.0000E+00        4.6100E+00        0.0000E+00
        7.1295E-02        0.0000E+00        5.1570E+00        0.0000E+00
        7.1398E-02        0.0000E+00        4.3210E+00        0.0000E+00
        7.1501E-02        0.0000E+00        4.2530E+00        0.0000E+00
        7.1604E-02        0.0000E+00        3.2400E+00        0.0000E+00
        7.1708E-02        0.0000E+00        2.4540E+00        0.0000E+00
        7.1812E-02        0.0000E+00        2.9820E+00        0.0000E+00
        7.1916E-02        0.0000E+00        3.2430E+00        0.0000E+00
        7.2020E-02        0.0000E+00        4.2670E+00        0.0000E+00
        7.2125E-02        0.0000E+00        5.5510E+00        0.0000E+00
        7.2230E-02        0.0000E+00        6.6260E+00        0.0000E+00
        7.2335E-02        0.0000E+00        5.1580E+00        0.0000E+00
        7.2440E-02        0.0000E+00        4.9480E+00        0.0000E+00
        7.2546E-02        0.0000E+00        6.6770E+00        0.0000E+00
        7.2651E-02        0.0000E+00        1.0420E+01        0.0000E+00
        7.2757E-02        0.0000E+00        1.4920E+01        0.0000E+00
        7.2863E-02        0.0000E+00        1.8210E+01        0.0000E+00
        7.2970E-02        0.0000E+00        1.9140E+01        0.0000E+00
        7.3076E-02        0.0000E+00        1.6940E+01        0.0000E+00
        7.3183E-02        0.0000E+00        1.5430E+01        0.0000E+00
        7.3290E-02        0.0000E+00        1.4380E+01        0.0000E+00
        7.3398E-02        0.0000E+00        1.4760E+01        0.0000E+00
        7.3505E-02        0.0000E+00        1.5340E+01        0.0000E+00
        7.3613E-02        0.0000E+00        1.6530E+01        0.0000E+00
        7.3721E-02        0.0000E+00        1.7460E+01        0.0000E+00
        7.3830E-02        0.0000E+00        1.7330E+01        0.0000E+00
        7.3938E-02        0.0000E+00        1.6680E+01        0.0000E+00
        7.4047E-02        0.0000E+00        1.5470E+01        0.0000E+00
        7.4156E-02        0.0000E+00        1.3980E+01        0.0000E+00
        7.4265E-02        0.0000E+00        1.2420E+01        0.0000E+00
        7.4375E-02        0.0000E+00        1.1580E+01        0.0000E+00
        7.4484E-02        0.0000E+00        1.0390E+01        0.0000E+00
        7.4594E-02        0.0000E+00        1.1660E+01        0.0000E+00
        7.4705E-02        0.0000E+00        1.1330E+01        0.0000E+00
        7.4815E-02        0.0000E+00        1.1610E+01        0.0000E+00
        7.4926E-02        0.0000E+00        1.0520E+01        0.0000E+00
        7.5037E-02        0.0000E+00        9.3670E+00        0.0000E+00
        7.5148E-02        0.0000E+00        8.9800E+00        0.0000E+00
        7.5260E-02        0.0000E+00        8.4510E+00        0.0000E+00
        7.5371E-02        0.0000E+00        7.8650E+00        0.0000E+00
        7.5483E-02        0.0000E+00        7.8330E+00        0.0000E+00
        7.5595E-02        0.0000E+00        7.3930E+00        0.0000E+00
        7.5708E-02        0.0000E+00        7.5380E+00        0.0000E+00
        7.5821E-02        0.0000E+00        7.9660E+00        0.0000E+00
        7.5934E-02        0.0000E+00        9.2270E+00        0.0000E+00
        7.6047E-02        0.0000E+00        9.4400E+00        0.0000E+00
        7.6160E-02        0.0000E+00        9.0190E+00        0.0000E+00
        7.6274E-02        0.0000E+00        8.0170E+00        0.0000E+00
        7.6388E-02        0.0000E+00        7.6380E+00        0.0000E+00
        7.6502E-02        0.0000E+00        6.9180E+00        0.0000E+00
        7.6617E-02        0.0000E+00        6.5940E+00        0.0000E+00
        7.6731E-02        0.0000E+00        5.8540E+00        0.0000E+00
        7.6846E-02        0.0000E+00        6.4800E+00        0.0000E+00
        7.6962E-02        0.0000E+00        6.0260E+00        0.0000E+00
        7.7077E-02        0.0000E+00        5.7090E+00        0.0000E+00
        7.7193E-02        0.0000E+00        6.1700E+00        0.0000E+00
        7.7309E-02        0.0000E+00        4.7860E+00        0.0000E+00
        7.7425E-02        0.0000E+00        5.7840E+00        0.0000E+00
        7.7542E-02        0.0000E+00        6.3220E+00        0.0000E+00
        7.7659E-02        0.0000E+00        6.3220E+00        0.0000E+00
        7.7776E-02        0.0000E+00        6.1190E+00        0.0000E+00
        7.7893E-02        0.0000E+00        6.6360E+00        0.0000E+00
        7.8011E-02        0.0000E+00        7.5430E+00        0.0000E+00
        7.8129E-02        0.0000E+00        6.6000E+00        0.0000E+00
        7.8247E-02        0.0000E+00        6.5730E+00        0.0000E+00
        7.8365E-02        0.0000E+00        5.1550E+00        0.0000E+00
        7.8484E-02        0.0000E+00        5.1320E+00        0.0000E+00
        7.8603E-02        0.0000E+00        4.2480E+00        0.0000E+00
        7.8722E-02        0.0000E+00        4.8310E+00        0.0000E+00
        7.8842E-02        0.0000E+00        5.5640E+00        0.0000E+00
        7.8962E-02        0.0000E+00        6.1060E+00        0.0000E+00
        7.9082E-02        0.0000E+00        7.9560E+00        0.0000E+00
        7.9202E-02        0.0000E+00        8.6750E+00        0.0000E+00
        7.9323E-02        0.0000E+00        7.3650E+00        0.0000E+00
        7.9444E-02        0.0000E+00        5.9210E+00        0.0000E+00
        7.9565E-02        0.0000E+00        5.2200E+00        0.0000E+00
        7.9686E-02        0.0000E+00        4.5170E+00        0.0000E+00
        7.9808E-02        0.0000E+00        4.4820E+00        0.0000E+00
        7.9930E-02        0.0000E+00        4.6200E+00        0.0000E+00
        8.0052E-02        0.0000E+00        3.8390E+00        0.0000E+00
        8.0175E-02        0.0000E+00        3.7180E+00        0.0000E+00
        8.0210E-02        0.0000E+00        4.1450E+00        0.0000E+00
        8.0298E-02        0.0000E+00        3.6180E+00        0.0000E+00
        8.0333E-02        0.0000E+00        2.9580E+00        0.0000E+00
        8.0456E-02        0.0000E+00        3.0390E+00        0.0000E+00
        8.0580E-02        0.0000E+00        3.6440E+00        0.0000E+00
        8.0703E-02        0.0000E+00        2.9510E+00        0.0000E+00
        8.0828E-02        0.0000E+00        3.6110E+00        0.0000E+00
        8.0952E-02        0.0000E+00        3.7980E+00        0.0000E+00
        8.1076E-02        0.0000E+00        5.3790E+00        0.0000E+00
        8.1201E-02        0.0000E+00        8.2360E+00        0.0000E+00
        8.1327E-02        0.0000E+00        1.0270E+01        0.0000E+00
        8.1452E-02        0.0000E+00        1.4960E+01        0.0000E+00
        8.1578E-02        0.0000E+00        1.7710E+01        0.0000E+00
        8.1704E-02        0.0000E+00        2.0460E+01        0.0000E+00
        8.1830E-02        0.0000E+00        1.9090E+01        0.0000E+00
        8.1957E-02        0.0000E+00        1.8900E+01        0.0000E+00
        8.2084E-02        0.0000E+00        1.8000E+01        0.0000E+00
        8.2211E-02        0.0000E+00        1.5080E+01        0.0000E+00
        8.2339E-02        0.0000E+00        1.4320E+01        0.0000E+00
        8.2467E-02        0.0000E+00        1.3370E+01        0.0000E+00
        8.2595E-02        0.0000E+00        1.1490E+01        0.0000E+00
        8.2723E-02        0.0000E+00        1.0090E+01        0.0000E+00
        8.2852E-02        0.0000E+00        9.5890E+00        0.0000E+00
        8.2981E-02        0.0000E+00        1.0290E+01        0.0000E+00
        8.3110E-02        0.0000E+00        1.0200E+01        0.0000E+00
        8.3240E-02        0.0000E+00        9.2310E+00        0.0000E+00
        8.3370E-02        0.0000E+00        8.2170E+00        0.0000E+00
        8.3500E-02        0.0000E+00        7.2760E+00        0.0000E+00
        8.3631E-02        0.0000E+00        7.7820E+00        0.0000E+00
        8.3762E-02        0.0000E+00        8.4200E+00        0.0000E+00
        8.3893E-02        0.0000E+00        8.0690E+00        0.0000E+00
        8.4024E-02        0.0000E+00        7.5550E+00        0.0000E+00
        8.4156E-02        0.0000E+00        7.6190E+00        0.0000E+00
        8.4288E-02        0.0000E+00        6.1660E+00        0.0000E+00
        8.4421E-02        0.0000E+00        7.7770E+00        0.0000E+00
        8.4553E-02        0.0000E+00        7.6450E+00        0.0000E+00
        8.4686E-02        0.0000E+00        7.8990E+00        0.0000E+00
        8.4820E-02        0.0000E+00        6.9840E+00        0.0000E+00
        8.4953E-02        0.0000E+00        5.6840E+00        0.0000E+00
        8.5087E-02        0.0000E+00        6.3400E+00        0.0000E+00
        8.5222E-02        0.0000E+00        6.6780E+00        0.0000E+00
        8.5356E-02        0.0000E+00        6.4650E+00        0.0000E+00
        8.5491E-02        0.0000E+00        6.5490E+00        0.0000E+00
        8.5627E-02        0.0000E+00        5.7940E+00        0.0000E+00
        8.5762E-02        0.0000E+00        5.3300E+00        0.0000E+00
        8.5898E-02        0.0000E+00        6.0880E+00        0.0000E+00
        8.6034E-02        0.0000E+00        6.2480E+00        0.0000E+00
        8.6171E-02        0.0000E+00        5.9470E+00        0.0000E+00
        8.6308E-02        0.0000E+00        5.7490E+00        0.0000E+00
        8.6445E-02        0.0000E+00        5.8390E+00        0.0000E+00
        8.6582E-02        0.0000E+00        5.4500E+00        0.0000E+00
        8.6720E-02        0.0000E+00        5.8180E+00        0.0000E+00
        8.6859E-02        0.0000E+00        5.3860E+00        0.0000E+00
        8.6997E-02        0.0000E+00        5.7680E+00        0.0000E+00
        8.7136E-02        0.0000E+00        5.0330E+00        0.0000E+00
        8.7275E-02        0.0000E+00        4.9310E+00        0.0000E+00
        8.7415E-02        0.0000E+00        5.4460E+00        0.0000E+00
        8.7554E-02        0.0000E+00        5.9400E+00        0.0000E+00
        8.7695E-02        0.0000E+00        5.7980E+00        0.0000E+00
        8.7835E-02        0.0000E+00        5.4460E+00        0.0000E+00
        8.7976E-02        0.0000E+00        5.4610E+00        0.0000E+00
        8.8117E-02        0.0000E+00        5.0660E+00        0.0000E+00
        8.8259E-02        0.0000E+00        4.2360E+00        0.0000E+00
        8.8401E-02        0.0000E+00        4.3970E+00        0.0000E+00
        8.8543E-02        0.0000E+00        4.4130E+00        0.0000E+00
        8.8685E-02        0.0000E+00        4.6820E+00        0.0000E+00
        8.8828E-02        0.0000E+00        4.0710E+00        0.0000E+00
        8.8972E-02        0.0000E+00        3.9790E+00        0.0000E+00
        8.9115E-02        0.0000E+00        3.6690E+00        0.0000E+00
        8.9259E-02        0.0000E+00        3.5180E+00        0.0000E+00
        8.9404E-02        0.0000E+00        2.3700E+00        0.0000E+00
        8.9548E-02        0.0000E+00        3.9890E+00        0.0000E+00
        8.9693E-02        0.0000E+00        6.0750E+00        0.0000E+00
        8.9839E-02        0.0000E+00        8.5050E+00        0.0000E+00
        8.9984E-02        0.0000E+00        1.0180E+01        0.0000E+00
        9.0130E-02        0.0000E+00        1.1390E+01        0.0000E+00
        9.0277E-02        0.0000E+00        1.0090E+01        0.0000E+00
        9.0424E-02        0.0000E+00        8.9640E+00        0.0000E+00
        9.0571E-02        0.0000E+00        6.7420E+00        0.0000E+00
        9.0718E-02        0.0000E+00        5.8570E+00        0.0000E+00
        9.0866E-02        0.0000E+00        5.4310E+00        0.0000E+00
        9.1014E-02        0.0000E+00        5.6930E+00        0.0000E+00
        9.1163E-02        0.0000E+00        5.5060E+00        0.0000E+00
        9.1312E-02        0.0000E+00        7.2960E+00        0.0000E+00
        9.1461E-02        0.0000E+00        9.9580E+00        0.0000E+00
        9.1611E-02        0.0000E+00        1.1250E+01        0.0000E+00
        9.1761E-02        0.0000E+00        9.6950E+00        0.0000E+00
        9.1911E-02        0.0000E+00        7.2720E+00        0.0000E+00
        9.2062E-02        0.0000E+00        7.2020E+00        0.0000E+00
        9.2213E-02        0.0000E+00        7.7390E+00        0.0000E+00
        9.2365E-02        0.0000E+00        8.8830E+00        0.0000E+00
        9.2517E-02        0.0000E+00        9.7500E+00        0.0000E+00
        9.2669E-02        0.0000E+00        8.2340E+00        0.0000E+00
        9.2822E-02        0.0000E+00        6.9110E+00        0.0000E+00
        9.2975E-02        0.0000E+00        7.0120E+00        0.0000E+00
        9.3128E-02        0.0000E+00        6.5080E+00        0.0000E+00
        9.3282E-02        0.0000E+00        6.1830E+00        0.0000E+00
        9.3436E-02        0.0000E+00        5.4960E+00        0.0000E+00
        9.3591E-02        0.0000E+00        6.1660E+00        0.0000E+00
        9.3746E-02        0.0000E+00        5.4360E+00        0.0000E+00
        9.3901E-02        0.0000E+00        5.0380E+00        0.0000E+00
        9.4057E-02        0.0000E+00        4.7760E+00        0.0000E+00
        9.4213E-02        0.0000E+00        4.8010E+00        0.0000E+00
        9.4369E-02        0.0000E+00        3.4610E+00        0.0000E+00
        9.4526E-02        0.0000E+00        4.4320E+00        0.0000E+00
        9.4683E-02        0.0000E+00        5.2860E+00        0.0000E+00
        9.4841E-02        0.0000E+00        6.5140E+00        0.0000E+00
        9.4999E-02        0.0000E+00        7.9060E+00        0.0000E+00
        9.5157E-02        0.0000E+00        7.7010E+00        0.0000E+00
        9.5316E-02        0.0000E+00        6.7500E+00        0.0000E+00
        9.5476E-02        0.0000E+00        6.9170E+00        0.0000E+00
        9.5635E-02        0.0000E+00        6.8070E+00        0.0000E+00
        9.5795E-02        0.0000E+00        7.5070E+00        0.0000E+00
        9.5956E-02        0.0000E+00        7.4990E+00        0.0000E+00
        9.6117E-02        0.0000E+00        9.5180E+00        0.0000E+00
        9.6278E-02        0.0000E+00        1.1380E+01        0.0000E+00
        9.6440E-02        0.0000E+00        9.1590E+00        0.0000E+00
        9.6602E-02        0.0000E+00        8.8510E+00        0.0000E+00
        9.6764E-02        0.0000E+00        7.5270E+00        0.0000E+00
        9.6927E-02        0.0000E+00        7.1960E+00        0.0000E+00
        9.7090E-02        0.0000E+00        7.4820E+00        0.0000E+00
        9.7254E-02        0.0000E+00        7.2790E+00        0.0000E+00
        9.7418E-02        0.0000E+00        5.7650E+00        0.0000E+00
        9.7583E-02        0.0000E+00        6.1580E+00        0.0000E+00
        9.7748E-02        0.0000E+00        5.5100E+00        0.0000E+00
        9.7913E-02        0.0000E+00        5.3550E+00        0.0000E+00
        9.8079E-02        0.0000E+00        5.4780E+00        0.0000E+00
        9.8245E-02        0.0000E+00        5.3090E+00        0.0000E+00
        9.8412E-02        0.0000E+00        5.2440E+00        0.0000E+00
        9.8579E-02        0.0000E+00        4.6730E+00        0.0000E+00
        9.8746E-02        0.0000E+00        5.0900E+00        0.0000E+00
        9.8914E-02        0.0000E+00        5.0360E+00        0.0000E+00
        9.9083E-02        0.0000E+00        4.6250E+00        0.0000E+00
        9.9251E-02        0.0000E+00        4.0300E+00        0.0000E+00
        9.9421E-02        0.0000E+00        4.0120E+00        0.0000E+00
        9.9590E-02        0.0000E+00        3.9100E+00        0.0000E+00
        9.9760E-02        0.0000E+00        3.7400E+00        0.0000E+00
        9.9931E-02        0.0000E+00        3.1160E+00        0.0000E+00
        1.0010E-01        0.0000E+00        3.3130E+00        0.0000E+00
        1.0027E-01        0.0000E+00        3.3910E+00        0.0000E+00
        1.0044E-01        0.0000E+00        3.8870E+00        0.0000E+00
        1.0062E-01        0.0000E+00        3.7640E+00        0.0000E+00
        1.0079E-01        0.0000E+00        4.0140E+00        0.0000E+00
        1.0096E-01        0.0000E+00        6.7910E+00        0.0000E+00
        1.0114E-01        0.0000E+00        8.3890E+00        0.0000E+00
        1.0131E-01        0.0000E+00        1.0490E+01        0.0000E+00
        1.0148E-01        0.0000E+00        1.0980E+01        0.0000E+00
        1.0166E-01        0.0000E+00        1.2640E+01        0.0000E+00
        1.0184E-01        0.0000E+00        1.1650E+01        0.0000E+00
        1.0201E-01        0.0000E+00        9.5650E+00        0.0000E+00
        1.0219E-01        0.0000E+00        7.9730E+00        0.0000E+00
        1.0236E-01        0.0000E+00        7.7450E+00        0.0000E+00
        1.0254E-01        0.0000E+00        6.9230E+00        0.0000E+00
        1.0272E-01        0.0000E+00        6.2180E+00        0.0000E+00
        1.0290E-01        0.0000E+00        5.2780E+00        0.0000E+00
        1.0308E-01        0.0000E+00        4.5670E+00        0.0000E+00
        1.0326E-01        0.0000E+00        4.0040E+00        0.0000E+00
        1.0343E-01        0.0000E+00        3.6620E+00        0.0000E+00
        1.0361E-01        0.0000E+00        4.3530E+00        0.0000E+00
        1.0380E-01        0.0000E+00        6.5020E+00        0.0000E+00
        1.0398E-01        0.0000E+00        8.2800E+00        0.0000E+00
        1.0416E-01        0.0000E+00        9.8040E+00        0.0000E+00
        1.0434E-01        0.0000E+00        8.9400E+00        0.0000E+00
        1.0452E-01        0.0000E+00        7.5140E+00        0.0000E+00
        1.0470E-01        0.0000E+00        5.7590E+00        0.0000E+00
        1.0489E-01        0.0000E+00        5.5580E+00        0.0000E+00
        1.0507E-01        0.0000E+00        5.7490E+00        0.0000E+00
        1.0526E-01        0.0000E+00        6.3170E+00        0.0000E+00
        1.0544E-01        0.0000E+00        7.5670E+00        0.0000E+00
        1.0563E-01        0.0000E+00        6.1510E+00        0.0000E+00
        1.0581E-01        0.0000E+00        5.4640E+00        0.0000E+00
        1.0600E-01        0.0000E+00        4.3870E+00        0.0000E+00
        1.0619E-01        0.0000E+00        3.7440E+00        0.0000E+00
        1.0637E-01        0.0000E+00        3.3090E+00        0.0000E+00
        1.0656E-01        0.0000E+00        3.1290E+00        0.0000E+00
        1.0675E-01        0.0000E+00        2.6780E+00        0.0000E+00
        1.0694E-01        0.0000E+00        3.6080E+00        0.0000E+00
        1.0713E-01        0.0000E+00        4.1320E+00        0.0000E+00
        1.0732E-01        0.0000E+00        5.2440E+00        0.0000E+00
        1.0751E-01        0.0000E+00        8.5220E+00        0.0000E+00
        1.0770E-01        0.0000E+00        1.2400E+01        0.0000E+00
        1.0789E-01        0.0000E+00        1.3090E+01        0.0000E+00
        1.0808E-01        0.0000E+00        1.0350E+01        0.0000E+00
        1.0827E-01        0.0000E+00        7.9130E+00        0.0000E+00
        1.0847E-01        0.0000E+00        6.0740E+00        0.0000E+00
        1.0866E-01        0.0000E+00        5.8550E+00        0.0000E+00
        1.0885E-01        0.0000E+00        8.1550E+00        0.0000E+00
        1.0905E-01        0.0000E+00        1.1290E+01        0.0000E+00
        1.0924E-01        0.0000E+00        1.2020E+01        0.0000E+00
        1.0944E-01        0.0000E+00        1.0450E+01        0.0000E+00
        1.0963E-01        0.0000E+00        9.2250E+00        0.0000E+00
        1.0983E-01        0.0000E+00        8.0400E+00        0.0000E+00
        1.1003E-01        0.0000E+00        7.6870E+00        0.0000E+00
        1.1022E-01        0.0000E+00        6.7100E+00        0.0000E+00
        1.1042E-01        0.0000E+00        7.2160E+00        0.0000E+00
        1.1062E-01        0.0000E+00        6.5180E+00        0.0000E+00
        1.1082E-01        0.0000E+00        6.7640E+00        0.0000E+00
        1.1102E-01        0.0000E+00        6.0910E+00        0.0000E+00
        1.1122E-01        0.0000E+00        6.6870E+00        0.0000E+00
        1.1142E-01        0.0000E+00        6.0500E+00        0.0000E+00
        1.1162E-01        0.0000E+00        5.9510E+00        0.0000E+00
        1.1182E-01        0.0000E+00        5.8650E+00        0.0000E+00
        1.1203E-01        0.0000E+00        6.1760E+00        0.0000E+00
        1.1223E-01        0.0000E+00        5.9160E+00        0.0000E+00
        1.1243E-01        0.0000E+00        6.6710E+00        0.0000E+00
        1.1264E-01        0.0000E+00        6.1490E+00        0.0000E+00
        1.1284E-01        0.0000E+00        5.7530E+00        0.0000E+00
        1.1305E-01        0.0000E+00        5.5230E+00        0.0000E+00
        1.1325E-01        0.0000E+00        5.0430E+00        0.0000E+00
        1.1346E-01        0.0000E+00        5.3540E+00        0.0000E+00
        1.1366E-01        0.0000E+00        4.5860E+00        0.0000E+00
        1.1387E-01        0.0000E+00        4.4290E+00        0.0000E+00
        1.1408E-01        0.0000E+00        4.3020E+00        0.0000E+00
        1.1429E-01        0.0000E+00        4.1030E+00        0.0000E+00
        1.1450E-01        0.0000E+00        4.7720E+00        0.0000E+00
        1.1471E-01        0.0000E+00        4.6380E+00        0.0000E+00
        1.1492E-01        0.0000E+00        6.1340E+00        0.0000E+00
        1.1513E-01        0.0000E+00        6.6390E+00        0.0000E+00
        1.1534E-01        0.0000E+00        7.4570E+00        0.0000E+00
        1.1555E-01        0.0000E+00        6.2250E+00        0.0000E+00
        1.1576E-01        0.0000E+00        5.3390E+00        0.0000E+00
        1.1598E-01        0.0000E+00        4.9700E+00        0.0000E+00
        1.1619E-01        0.0000E+00        4.9640E+00        0.0000E+00
        1.1641E-01        0.0000E+00        4.6870E+00        0.0000E+00
        1.1662E-01        0.0000E+00        4.4340E+00        0.0000E+00
        1.1684E-01        0.0000E+00        4.3480E+00        0.0000E+00
        1.1705E-01        0.0000E+00        4.5110E+00        0.0000E+00
        1.1727E-01        0.0000E+00        4.3360E+00        0.0000E+00
        1.1749E-01        0.0000E+00        3.8140E+00        0.0000E+00
        1.1771E-01        0.0000E+00        3.5020E+00        0.0000E+00
        1.1792E-01        0.0000E+00        4.1890E+00        0.0000E+00
        1.1814E-01        0.0000E+00        4.6820E+00        0.0000E+00
        1.1836E-01        0.0000E+00        5.0580E+00        0.0000E+00
        1.1858E-01        0.0000E+00        6.5200E+00        0.0000E+00
        1.1880E-01        0.0000E+00        6.6980E+00        0.0000E+00
        1.1903E-01        0.0000E+00        6.1520E+00        0.0000E+00
        1.1925E-01        0.0000E+00        4.8930E+00        0.0000E+00
        1.1947E-01        0.0000E+00        4.5090E+00        0.0000E+00
        1.1969E-01        0.0000E+00        5.3310E+00        0.0000E+00
        1.1992E-01        0.0000E+00        6.6370E+00        0.0000E+00
        1.2014E-01        0.0000E+00        6.3220E+00        0.0000E+00
        1.2037E-01        0.0000E+00        5.8530E+00        0.0000E+00
        1.2059E-01        0.0000E+00        5.6160E+00        0.0000E+00
        1.2082E-01        0.0000E+00        5.3030E+00        0.0000E+00
        1.2105E-01        0.0000E+00        5.0090E+00        0.0000E+00
        1.2128E-01        0.0000E+00        4.1610E+00        0.0000E+00
        1.2151E-01        0.0000E+00        4.4230E+00        0.0000E+00
        1.2173E-01        0.0000E+00        4.9120E+00        0.0000E+00
        1.2196E-01        0.0000E+00        4.6560E+00        0.0000E+00
        1.2219E-01        0.0000E+00        3.8280E+00        0.0000E+00
        1.2243E-01        0.0000E+00        3.5280E+00        0.0000E+00
        1.2266E-01        0.0000E+00        3.9750E+00        0.0000E+00
        1.2289E-01        0.0000E+00        3.2830E+00        0.0000E+00
        1.2312E-01        0.0000E+00        2.6070E+00        0.0000E+00
        1.2336E-01        0.0000E+00        2.9800E+00        0.0000E+00
        1.2359E-01        0.0000E+00        3.0010E+00        0.0000E+00
        1.2383E-01        0.0000E+00        4.4380E+00        0.0000E+00
        1.2406E-01        0.0000E+00        5.5230E+00        0.0000E+00
        1.2430E-01        0.0000E+00        6.7740E+00        0.0000E+00
        1.2454E-01        0.0000E+00        7.5580E+00        0.0000E+00
        1.2477E-01        0.0000E+00        7.3870E+00        0.0000E+00
        1.2501E-01        0.0000E+00        6.9170E+00        0.0000E+00
        1.2525E-01        0.0000E+00        5.8700E+00        0.0000E+00
        1.2549E-01        0.0000E+00        4.9810E+00        0.0000E+00
        1.2573E-01        0.0000E+00        5.4950E+00        0.0000E+00
        1.2597E-01        0.0000E+00        6.4900E+00        0.0000E+00
        1.2622E-01        0.0000E+00        5.2130E+00        0.0000E+00
        1.2646E-01        0.0000E+00        5.3900E+00        0.0000E+00
        1.2670E-01        0.0000E+00        4.7420E+00        0.0000E+00
        1.2695E-01        0.0000E+00        4.6030E+00        0.0000E+00
        1.2719E-01        0.0000E+00        5.8020E+00        0.0000E+00
        1.2744E-01        0.0000E+00        7.4680E+00        0.0000E+00
        1.2768E-01        0.0000E+00        7.5300E+00        0.0000E+00
        1.2793E-01        0.0000E+00        6.4840E+00        0.0000E+00
        1.2818E-01        0.0000E+00        7.4640E+00        0.0000E+00
        1.2843E-01        0.0000E+00        9.6650E+00        0.0000E+00
        1.2868E-01        0.0000E+00        1.1460E+01        0.0000E+00
        1.2892E-01        0.0000E+00        1.2100E+01        0.0000E+00
        1.2917E-01        0.0000E+00        9.2890E+00        0.0000E+00
        1.2943E-01        0.0000E+00        7.0840E+00        0.0000E+00
        1.2968E-01        0.0000E+00        6.4370E+00        0.0000E+00
        1.2993E-01        0.0000E+00        6.1980E+00        0.0000E+00
        1.3019E-01        0.0000E+00        6.0660E+00        0.0000E+00
        1.3044E-01        0.0000E+00        6.1170E+00        0.0000E+00
        1.3069E-01        0.0000E+00        4.8000E+00        0.0000E+00
        1.3095E-01        0.0000E+00        4.6450E+00        0.0000E+00
        1.3121E-01        0.0000E+00        4.6110E+00        0.0000E+00
        1.3146E-01        0.0000E+00        5.5630E+00        0.0000E+00
        1.3172E-01        0.0000E+00        7.3050E+00        0.0000E+00
        1.3198E-01        0.0000E+00        5.9380E+00        0.0000E+00
        1.3224E-01        0.0000E+00        4.1450E+00        0.0000E+00
        1.3250E-01        0.0000E+00        3.2790E+00        0.0000E+00
        1.3276E-01        0.0000E+00        3.3690E+00        0.0000E+00
        1.3302E-01        0.0000E+00        3.8130E+00        0.0000E+00
        1.3329E-01        0.0000E+00        5.6940E+00        0.0000E+00
        1.3355E-01        0.0000E+00        6.5420E+00        0.0000E+00
        1.3381E-01        0.0000E+00        8.3080E+00        0.0000E+00
        1.3408E-01        0.0000E+00        5.7100E+00        0.0000E+00
        1.3434E-01        0.0000E+00        6.1100E+00        0.0000E+00
        1.3461E-01        0.0000E+00        6.4590E+00        0.0000E+00
        1.3488E-01        0.0000E+00        5.0120E+00        0.0000E+00
        1.3515E-01        0.0000E+00        4.1060E+00        0.0000E+00
        1.3541E-01        0.0000E+00        4.1230E+00        0.0000E+00
        1.3569E-01        0.0000E+00        5.0060E+00        0.0000E+00
        1.3596E-01        0.0000E+00        7.2670E+00        0.0000E+00
        1.3623E-01        0.0000E+00        9.4470E+00        0.0000E+00
        1.3650E-01        0.0000E+00        9.3510E+00        0.0000E+00
        1.3677E-01        0.0000E+00        8.8880E+00        0.0000E+00
        1.3704E-01        0.0000E+00        9.8940E+00        0.0000E+00
        1.3732E-01        0.0000E+00        1.2930E+01        0.0000E+00
        1.3760E-01        0.0000E+00        1.3680E+01        0.0000E+00
        1.3787E-01        0.0000E+00        1.3060E+01        0.0000E+00
        1.3815E-01        0.0000E+00        1.1580E+01        0.0000E+00
        1.3843E-01        0.0000E+00        1.0410E+01        0.0000E+00
        1.3871E-01        0.0000E+00        9.2830E+00        0.0000E+00
        1.3899E-01        0.0000E+00        8.6390E+00        0.0000E+00
        1.3927E-01        0.0000E+00        7.6780E+00        0.0000E+00
        1.3955E-01        0.0000E+00        7.3830E+00        0.0000E+00
        1.3983E-01        0.0000E+00        6.8980E+00        0.0000E+00
        1.4011E-01        0.0000E+00        6.5520E+00        0.0000E+00
        1.4040E-01        0.0000E+00        6.5750E+00        0.0000E+00
        1.4068E-01        0.0000E+00        7.4060E+00        0.0000E+00
        1.4097E-01        0.0000E+00        9.5430E+00        0.0000E+00
        1.4125E-01        0.0000E+00        8.8770E+00        0.0000E+00
        1.4154E-01        0.0000E+00        7.1170E+00        0.0000E+00
        1.4183E-01        0.0000E+00        7.6330E+00        0.0000E+00
        1.4212E-01        0.0000E+00        9.1940E+00        0.0000E+00
        1.4241E-01        0.0000E+00        1.0230E+01        0.0000E+00
        1.4270E-01        0.0000E+00        9.0000E+00        0.0000E+00
        1.4299E-01        0.0000E+00        8.3490E+00        0.0000E+00
        1.4328E-01        0.0000E+00        8.3510E+00        0.0000E+00
