# entry-subent-pointer  : D0697-002-0 
# EXFOR reaction        : ['92-U-235', ['P,F'], 'MASS,PRE,FY'] 
# incident energy       : 1.0300e+01 MeV 
# target                : U-235 
# product               : 76.0 <= A <= 160.0 
# level energy          : - 
# MF-MT number          : 8 - 460 
# first author          : S.I.Mulgin 
# institute             : (4KASKAZ): Institute Yadernoi Fiziki, Almaty 
# reference             : (J,NP/A,824,1,2009) 
# year                  : 2009 
# facility              : (ISOCY): Isochronous cyclotron 
# git                   : https://github.com/IAEA-NDS/exfor_master/blob/main/exforall/D06/D0697.x4 
# nds                   : https://nds.iaea.org/EXFOR/D0697
#
# Charge(No Dim.)    Mass(No Dim.)  Isomer(No Dim.)    Yield(%/fiss)   dYield(%/fiss)
                              76.0                       5.80000E-04      0.00000E+00
                              77.0                       8.70000E-04      0.00000E+00
                              78.0                       1.15000E-03      0.00000E+00
                              79.0                       1.54000E-03      0.00000E+00
                              80.0                       2.31000E-03      0.00000E+00
                              81.0                       3.08000E-03      0.00000E+00
                              82.0                       4.13000E-03      0.00000E+00
                              83.0                       5.48000E-03      0.00000E+00
                              84.0                       7.12000E-03      0.00000E+00
                              85.0                       9.23000E-03      0.00000E+00
                              86.0                       1.18300E-02      0.00000E+00
                              87.0                       1.46200E-02      0.00000E+00
                              88.0                       1.79800E-02      0.00000E+00
                              89.0                       2.18300E-02      0.00000E+00
                              90.0                       2.58700E-02      0.00000E+00
                              91.0                       3.01900E-02      0.00000E+00
                              92.0                       3.43300E-02      0.00000E+00
                              93.0                       3.82700E-02      0.00000E+00
                              94.0                       4.16300E-02      0.00000E+00
                              95.0                       4.43300E-02      0.00000E+00
                              96.0                       4.62500E-02      0.00000E+00
                              97.0                       4.81700E-02      0.00000E+00
                              98.0                       4.93300E-02      0.00000E+00
                              99.0                       4.96200E-02      0.00000E+00
                             100.0                       4.92300E-02      0.00000E+00
                             101.0                       4.80800E-02      0.00000E+00
                             102.0                       4.62500E-02      0.00000E+00
                             103.0                       4.38500E-02      0.00000E+00
                             104.0                       4.05800E-02      0.00000E+00
                             105.0                       3.68300E-02      0.00000E+00
                             106.0                       3.31700E-02      0.00000E+00
                             107.0                       2.91300E-02      0.00000E+00
                             108.0                       2.52900E-02      0.00000E+00
                             109.0                       2.18300E-02      0.00000E+00
                             110.0                       1.88500E-02      0.00000E+00
                             111.0                       1.65400E-02      0.00000E+00
                             112.0                       1.47100E-02      0.00000E+00
                             113.0                       1.31700E-02      0.00000E+00
                             114.0                       1.21200E-02      0.00000E+00
                             115.0                       1.14400E-02      0.00000E+00
                             116.0                       1.08700E-02      0.00000E+00
                             117.0                       1.05800E-02      0.00000E+00
                             118.0                       1.04800E-02      0.00000E+00
                             119.0                       1.04800E-02      0.00000E+00
                             120.0                       1.07700E-02      0.00000E+00
                             121.0                       1.14400E-02      0.00000E+00
                             122.0                       1.21200E-02      0.00000E+00
                             123.0                       1.31700E-02      0.00000E+00
                             124.0                       1.47100E-02      0.00000E+00
                             125.0                       1.65400E-02      0.00000E+00
                             126.0                       1.88500E-02      0.00000E+00
                             127.0                       2.17300E-02      0.00000E+00
                             128.0                       2.51900E-02      0.00000E+00
                             129.0                       2.91300E-02      0.00000E+00
                             130.0                       3.30800E-02      0.00000E+00
                             131.0                       3.68300E-02      0.00000E+00
                             132.0                       4.05800E-02      0.00000E+00
                             133.0                       4.37500E-02      0.00000E+00
                             134.0                       4.63500E-02      0.00000E+00
                             135.0                       4.80800E-02      0.00000E+00
                             136.0                       4.92300E-02      0.00000E+00
                             137.0                       4.96200E-02      0.00000E+00
                             138.0                       4.92300E-02      0.00000E+00
                             139.0                       4.80800E-02      0.00000E+00
                             140.0                       4.62500E-02      0.00000E+00
                             141.0                       4.42300E-02      0.00000E+00
                             142.0                       4.16300E-02      0.00000E+00
                             143.0                       3.81700E-02      0.00000E+00
                             144.0                       3.43300E-02      0.00000E+00
                             145.0                       3.01900E-02      0.00000E+00
                             146.0                       2.58700E-02      0.00000E+00
                             147.0                       2.18300E-02      0.00000E+00
                             148.0                       1.80800E-02      0.00000E+00
                             149.0                       1.47100E-02      0.00000E+00
                             150.0                       1.18300E-02      0.00000E+00
                             151.0                       9.23000E-03      0.00000E+00
                             152.0                       7.12000E-03      0.00000E+00
                             153.0                       5.48000E-03      0.00000E+00
                             154.0                       4.13000E-03      0.00000E+00
                             155.0                       3.08000E-03      0.00000E+00
                             156.0                       2.21000E-03      0.00000E+00
                             157.0                       1.54000E-03      0.00000E+00
                             158.0                       1.06000E-03      0.00000E+00
                             159.0                       8.70000E-04      0.00000E+00
                             160.0                       4.80000E-04      0.00000E+00
