# entry-subent-pointer  : 33093-003-0 
# EXFOR reaction        : ['92-U-238', ['N,F'], 'MASS,CHN,FY'] 
# incident energy       : 1.2520e+01 MeV 
# target                : U-238 
# product               : 84.0 <= A <= 153.0 
# level energy          : - 
# MF-MT number          : 8 - 459 
# first author          : H.Naik 
# institute             : (3INDTRM): Bhabha Atomic Research Centre (BARC), Trombay, Mumbai 
# reference             : (J,NP/A,941,16,2015) 
# year                  : 2015 
# facility              : (VDGT): Tandem van de Graaff 
# git                   : https://github.com/IAEA-NDS/exfor_master/blob/main/exforall/330/33093.x4 
# nds                   : https://nds.iaea.org/EXFOR/33093
#
# Charge(No Dim.)    Mass(No Dim.)  Isomer(No Dim.)    Yield(%/fiss)   dYield(%/fiss)
                              84.0                       6.96000E-03      4.10000E-04
                              85.0                       1.17100E-02      9.50000E-04
                              85.0                       1.19200E-02      9.50000E-04
                              87.0                       2.19500E-02      1.08000E-03
                              88.0                       2.82200E-02      1.47000E-03
                              91.0                       3.45100E-02      2.11000E-03
                              91.0                       3.83600E-02      1.53000E-03
                              92.0                       4.31600E-02      2.11000E-03
                              93.0                       3.70100E-02      1.62000E-03
                              95.0                       5.05700E-02      2.20000E-03
                              95.0                       5.29000E-02      1.97000E-03
                              97.0                       5.90500E-02      2.20000E-03
                              99.0                       4.64400E-02      1.88000E-03
                              99.0                       5.10600E-02      2.60000E-03
                             103.0                       5.84200E-02      1.84000E-03
                             105.0                       3.31600E-02      2.06000E-03
                             105.0                       3.48600E-02      2.42000E-03
                             112.0                       6.15000E-03      4.90000E-04
                             113.0                       5.25000E-03      4.00000E-04
                             115.0                       5.03000E-03      3.90000E-04
                             117.0                       4.76000E-03      3.60000E-04
                             127.0                       8.44000E-03      6.70000E-04
                             128.0                       1.31000E-02      9.90000E-04
                             129.0                       1.67400E-02      1.97000E-03
                             131.0                       3.63900E-02      2.65000E-03
                             132.0                       4.87700E-02      2.56000E-03
                             133.0                       5.74800E-02      1.93000E-03
                             134.0                       6.71700E-02      2.42000E-03
                             134.0                       6.45700E-02      2.88000E-03
                             134.0                       6.96400E-02      2.20000E-03
                             134.0                       6.71700E-02      2.15000E-03
                             135.0                       5.09700E-02      2.11000E-03
                             135.0                       4.98100E-02      2.06000E-03
                             138.0                       5.46500E-02      2.38000E-03
                             138.0                       6.24600E-02      1.97000E-03
                             138.0                       6.08400E-02      1.88000E-03
                             139.0                       5.78800E-02      2.38000E-03
                             140.0                       5.56800E-02      1.97000E-03
                             141.0                       5.12000E-02      2.20000E-03
                             142.0                       4.63100E-02      1.88000E-03
                             143.0                       4.91800E-02      2.06000E-03
                             144.0                       5.07900E-02      2.42000E-03
                             147.0                       3.10100E-02      1.57000E-03
                             149.0                       2.11800E-02      1.71000E-03
                             149.0                       2.12600E-02      2.07000E-03
                             151.0                       1.18800E-02      5.20000E-04
                             153.0                       4.22000E-03      3.10000E-04
