# entry-subent-pointer  : 22799-004-0 
# EXFOR reaction        : ['92-U-238', ['N,F'], 'MASS,SEC,FY'] 
# incident energy       : 7.5000e+00 MeV 
# target                : U-238 
# product               : 72.0 <= A <= 164.0 
# level energy          : - 
# MF-MT number          : 8 - 454 
# first author          : C.M.Zoeller 
# institute             : (2GERJUL): Forschungszentrum Juelich, Juelich 
# reference             : (T,ZOELLER,1995) 
# year                  : 1995 
# facility              : (LINAC): Linear accelerator 
# git                   : https://github.com/IAEA-NDS/exfor_master/blob/main/exforall/227/22799.x4 
# nds                   : https://nds.iaea.org/EXFOR/22799
#
# Charge(No Dim.)    Mass(No Dim.)  Isomer(No Dim.)    Yield(%/fiss)   dYield(%/fiss)
                              72.0                       1.00000E-04      3.00000E-05
                              74.0                       2.00000E-04      5.00000E-05
                              76.0                       3.00000E-04      6.00000E-05
                              78.0                       9.00000E-04      1.10000E-04
                              80.0                       1.50000E-03      1.40000E-04
                              82.0                       3.50000E-03      2.10000E-04
                              84.0                       6.00000E-03      2.80000E-04
                              86.0                       1.09000E-02      3.80000E-04
                              88.0                       1.75000E-02      4.80000E-04
                              90.0                       2.64000E-02      5.90000E-04
                              92.0                       3.71000E-02      6.90000E-04
                              94.0                       4.65000E-02      7.80000E-04
                              96.0                       5.58000E-02      8.50000E-04
                              98.0                       5.81000E-02      8.70000E-04
                             100.0                       5.95000E-02      8.80000E-04
                             102.0                       5.42000E-02      8.40000E-04
                             104.0                       4.54000E-02      7.70000E-04
                             106.0                       3.19000E-02      6.40000E-04
                             108.0                       2.05000E-02      5.20000E-04
                             110.0                       1.10000E-02      3.80000E-04
                             112.0                       6.80000E-03      3.00000E-04
                             114.0                       3.50000E-03      2.10000E-04
                             116.0                       3.30000E-03      2.10000E-04
                             118.0                       3.20000E-03      2.10000E-04
                             120.0                       3.20000E-03      2.00000E-04
                             122.0                       5.50000E-03      2.70000E-04
                             124.0                       8.10000E-03      3.30000E-04
                             126.0                       1.31000E-02      4.10000E-04
                             128.0                       2.44000E-02      5.60000E-04
                             130.0                       3.84000E-02      7.10000E-04
                             132.0                       5.04000E-02      8.10000E-04
                             134.0                       5.84000E-02      8.70000E-04
                             136.0                       5.87000E-02      8.70000E-04
                             138.0                       5.71000E-02      8.60000E-04
                             140.0                       5.23000E-02      8.30000E-04
                             142.0                       4.18000E-02      7.40000E-04
                             144.0                       3.18000E-02      6.40000E-04
                             146.0                       2.17000E-02      5.30000E-04
                             148.0                       1.46000E-02      4.40000E-04
                             150.0                       8.10000E-03      3.30000E-04
                             152.0                       4.50000E-03      2.40000E-04
                             154.0                       2.20000E-03      1.70000E-04
                             156.0                       1.20000E-03      1.20000E-04
                             158.0                       6.00000E-04      8.00000E-05
                             160.0                       2.00000E-04      6.00000E-05
                             162.0                       1.00000E-04      4.00000E-05
                             164.0                       1.00000E-04      3.00000E-05
