# entry-subent-pointer  : 22799-004-0 
# EXFOR reaction        : ['92-U-238', ['N,F'], 'MASS,SEC,FY'] 
# incident energy       : 5.0000e+01 MeV 
# target                : U-238 
# product               : 70.0 <= A <= 160.0 
# level energy          : - 
# MF-MT number          : 8 - 454 
# first author          : C.M.Zoeller 
# institute             : (2GERJUL): Forschungszentrum Juelich, Juelich 
# reference             : (T,ZOELLER,1995) 
# year                  : 1995 
# facility              : (LINAC): Linear accelerator 
# git                   : https://github.com/IAEA-NDS/exfor_master/blob/main/exforall/227/22799.x4 
# nds                   : https://nds.iaea.org/EXFOR/22799
#
# Charge(No Dim.)    Mass(No Dim.)  Isomer(No Dim.)    Yield(%/fiss)   dYield(%/fiss)
                              70.0                       1.00000E-04      4.00000E-05
                              72.0                       3.00000E-04      8.00000E-05
                              74.0                       7.00000E-04      1.20000E-04
                              76.0                       1.00000E-03      1.40000E-04
                              78.0                       2.20000E-03      2.10000E-04
                              80.0                       3.60000E-03      2.60000E-04
                              82.0                       6.70000E-03      3.60000E-04
                              84.0                       9.50000E-03      4.30000E-04
                              86.0                       1.38000E-02      5.20000E-04
                              88.0                       1.96000E-02      6.10000E-04
                              90.0                       2.63000E-02      7.10000E-04
                              92.0                       3.19000E-02      7.80000E-04
                              94.0                       3.63000E-02      8.40000E-04
                              96.0                       4.06000E-02      8.90000E-04
                              98.0                       4.36000E-02      9.20000E-04
                             100.0                       4.19000E-02      9.00000E-04
                             102.0                       3.89000E-02      8.70000E-04
                             104.0                       3.72000E-02      8.50000E-04
                             106.0                       3.43000E-02      8.10000E-04
                             108.0                       3.13000E-02      7.80000E-04
                             110.0                       3.04000E-02      7.70000E-04
                             112.0                       2.91000E-02      7.50000E-04
                             114.0                       2.82000E-02      7.40000E-04
                             116.0                       2.95000E-02      7.50000E-04
                             118.0                       2.93000E-02      7.50000E-04
                             120.0                       3.01000E-02      7.60000E-04
                             122.0                       3.38000E-02      8.10000E-04
                             124.0                       3.57000E-02      8.30000E-04
                             126.0                       3.82000E-02      8.60000E-04
                             128.0                       4.03000E-02      8.80000E-04
                             130.0                       4.33000E-02      9.10000E-04
                             132.0                       4.21000E-02      9.10000E-04
                             134.0                       3.87000E-02      8.60000E-04
                             136.0                       3.41000E-02      8.10000E-04
                             138.0                       2.82000E-02      7.40000E-04
                             140.0                       2.35000E-02      6.70000E-04
                             142.0                       1.57000E-02      5.50000E-04
                             144.0                       1.12000E-02      4.60000E-04
                             146.0                       7.90000E-03      3.90000E-04
                             148.0                       5.30000E-03      3.20000E-04
                             150.0                       2.60000E-03      2.20000E-04
                             152.0                       1.60000E-03      1.80000E-04
                             154.0                       8.00000E-04      1.20000E-04
                             156.0                       5.00000E-04      1.00000E-04
                             158.0                       1.00000E-04      5.00000E-05
                             160.0                       1.00000E-04      3.00000E-05
