# entry-subent-pointer  : 22799-004-0 
# EXFOR reaction        : ['92-U-238', ['N,F'], 'MASS,SEC,FY'] 
# incident energy       : 2.7500e+01 MeV 
# target                : U-238 
# product               : 72.0 <= A <= 160.0 
# level energy          : - 
# MF-MT number          : 8 - 454 
# first author          : C.M.Zoeller 
# institute             : (2GERJUL): Forschungszentrum Juelich, Juelich 
# reference             : (T,ZOELLER,1995) 
# year                  : 1995 
# facility              : (LINAC): Linear accelerator 
# git                   : https://github.com/IAEA-NDS/exfor_master/blob/main/exforall/227/22799.x4 
# nds                   : https://nds.iaea.org/EXFOR/22799
#
# Charge(No Dim.)    Mass(No Dim.)  Isomer(No Dim.)    Yield(%/fiss)   dYield(%/fiss)
                              72.0                       2.00000E-04      5.00000E-05
                              74.0                       4.00000E-04      6.00000E-05
                              76.0                       6.00000E-04      8.00000E-05
                              78.0                       1.50000E-03      1.30000E-04
                              80.0                       3.00000E-03      1.80000E-04
                              82.0                       5.00000E-03      2.40000E-04
                              84.0                       8.70000E-03      3.10000E-04
                              86.0                       1.32000E-02      3.80000E-04
                              88.0                       2.11000E-02      4.90000E-04
                              90.0                       2.71000E-02      5.50000E-04
                              92.0                       3.50000E-02      6.30000E-04
                              94.0                       4.13000E-02      6.80000E-04
                              96.0                       4.54000E-02      7.10000E-04
                              98.0                       4.82000E-02      7.40000E-04
                             100.0                       4.69000E-02      7.20000E-04
                             102.0                       4.19000E-02      6.90000E-04
                             104.0                       3.76000E-02      6.50000E-04
                             106.0                       3.18000E-02      6.00000E-04
                             108.0                       2.66000E-02      5.50000E-04
                             110.0                       2.20000E-02      5.00000E-04
                             112.0                       2.12000E-02      4.90000E-04
                             114.0                       1.89000E-02      4.60000E-04
                             116.0                       1.74000E-02      4.40000E-04
                             118.0                       1.89000E-02      4.60000E-04
                             120.0                       2.00000E-02      4.70000E-04
                             122.0                       2.21000E-02      5.00000E-04
                             124.0                       2.55000E-02      5.30000E-04
                             126.0                       3.24000E-02      6.00000E-04
                             128.0                       3.87000E-02      6.60000E-04
                             130.0                       4.42000E-02      7.00000E-04
                             132.0                       4.63000E-02      7.20000E-04
                             134.0                       4.87000E-02      7.40000E-04
                             136.0                       4.37000E-02      7.00000E-04
                             138.0                       3.97000E-02      6.70000E-04
                             140.0                       3.28000E-02      6.10000E-04
                             142.0                       2.56000E-02      5.40000E-04
                             144.0                       1.86000E-02      4.60000E-04
                             146.0                       1.14000E-02      3.60000E-04
                             148.0                       7.50000E-03      2.90000E-04
                             150.0                       4.50000E-03      2.20000E-04
                             152.0                       2.40000E-03      1.60000E-04
                             154.0                       1.20000E-03      1.10000E-04
                             156.0                       6.00000E-04      8.00000E-05
                             158.0                       3.00000E-04      6.00000E-05
                             160.0                       1.00000E-04      4.00000E-05
