# entry-subent-pointer  : 22799-004-0 
# EXFOR reaction        : ['92-U-238', ['N,F'], 'MASS,SEC,FY'] 
# incident energy       : 3.9000e+01 MeV 
# target                : U-238 
# product               : 70.0 <= A <= 160.0 
# level energy          : - 
# MF-MT number          : 8 - 454 
# first author          : C.M.Zoeller 
# institute             : (2GERJUL): Forschungszentrum Juelich, Juelich 
# reference             : (T,ZOELLER,1995) 
# year                  : 1995 
# facility              : (LINAC): Linear accelerator 
# git                   : https://github.com/IAEA-NDS/exfor_master/blob/main/exforall/227/22799.x4 
# nds                   : https://nds.iaea.org/EXFOR/22799
#
# Charge(No Dim.)    Mass(No Dim.)  Isomer(No Dim.)    Yield(%/fiss)   dYield(%/fiss)
                              70.0                       1.00000E-04      3.00000E-05
                              72.0                       3.00000E-04      6.00000E-05
                              74.0                       5.00000E-04      8.00000E-05
                              76.0                       1.10000E-03      1.20000E-04
                              78.0                       1.80000E-03      1.50000E-04
                              80.0                       3.00000E-03      1.90000E-04
                              82.0                       5.20000E-03      2.60000E-04
                              84.0                       8.80000E-03      3.40000E-04
                              86.0                       1.36000E-02      4.20000E-04
                              88.0                       1.96000E-02      5.00000E-04
                              90.0                       2.63000E-02      5.80000E-04
                              92.0                       3.32000E-02      6.50000E-04
                              94.0                       3.91000E-02      7.10000E-04
                              96.0                       4.31000E-02      7.40000E-04
                              98.0                       4.45000E-02      7.50000E-04
                             100.0                       4.41000E-02      7.50000E-04
                             102.0                       4.16000E-02      7.30000E-04
                             104.0                       3.67000E-02      6.80000E-04
                             106.0                       3.20000E-02      6.40000E-04
                             108.0                       3.10000E-02      6.30000E-04
                             110.0                       2.71000E-02      5.90000E-04
                             112.0                       2.61000E-02      5.80000E-04
                             114.0                       2.36000E-02      5.50000E-04
                             116.0                       2.35000E-02      5.50000E-04
                             118.0                       2.58000E-02      5.70000E-04
                             120.0                       2.71000E-02      5.90000E-04
                             122.0                       3.05000E-02      6.20000E-04
                             124.0                       3.17000E-02      6.40000E-04
                             126.0                       3.71000E-02      6.90000E-04
                             128.0                       4.21000E-02      7.30000E-04
                             130.0                       4.37000E-02      7.50000E-04
                             132.0                       4.42000E-02      7.50000E-04
                             134.0                       4.33000E-02      7.40000E-04
                             136.0                       3.84000E-02      7.00000E-04
                             138.0                       3.26000E-02      6.40000E-04
                             140.0                       2.59000E-02      5.80000E-04
                             142.0                       1.90000E-02      4.90000E-04
                             144.0                       1.34000E-02      4.10000E-04
                             146.0                       8.10000E-03      3.20000E-04
                             148.0                       5.10000E-03      2.50000E-04
                             150.0                       2.80000E-03      1.90000E-04
                             152.0                       1.60000E-03      1.40000E-04
                             154.0                       1.00000E-03      1.10000E-04
                             156.0                       5.00000E-04      8.00000E-05
                             158.0                       2.00000E-04      5.00000E-05
                             160.0                       1.00000E-04      3.00000E-05
