# entry-subent-pointer  : 22799-004-0 
# EXFOR reaction        : ['92-U-238', ['N,F'], 'MASS,SEC,FY'] 
# incident energy       : 2.0000e+01 MeV 
# target                : U-238 
# product               : 74.0 <= A <= 160.0 
# level energy          : - 
# MF-MT number          : 8 - 454 
# first author          : C.M.Zoeller 
# institute             : (2GERJUL): Forschungszentrum Juelich, Juelich 
# reference             : (T,ZOELLER,1995) 
# year                  : 1995 
# facility              : (LINAC): Linear accelerator 
# git                   : https://github.com/IAEA-NDS/exfor_master/blob/main/exforall/227/22799.x4 
# nds                   : https://nds.iaea.org/EXFOR/22799
#
# Charge(No Dim.)    Mass(No Dim.)  Isomer(No Dim.)    Yield(%/fiss)   dYield(%/fiss)
                              74.0                       4.00000E-04      1.00000E-04
                              76.0                       9.00000E-04      1.50000E-04
                              78.0                       1.20000E-03      1.80000E-04
                              80.0                       3.30000E-03      2.90000E-04
                              82.0                       4.60000E-03      3.40000E-04
                              84.0                       8.30000E-03      4.60000E-04
                              86.0                       1.32000E-02      5.80000E-04
                              88.0                       1.88000E-02      6.90000E-04
                              90.0                       2.71000E-02      8.30000E-04
                              92.0                       3.64000E-02      9.60000E-04
                              94.0                       4.23000E-02      1.04000E-03
                              96.0                       4.77000E-02      1.10000E-03
                              98.0                       5.07000E-02      1.14000E-03
                             100.0                       4.90000E-02      1.12000E-03
                             102.0                       4.74000E-02      1.10000E-03
                             104.0                       3.87000E-02      9.90000E-04
                             106.0                       3.09000E-02      8.90000E-04
                             108.0                       2.43000E-02      7.90000E-04
                             110.0                       1.89000E-02      6.90000E-04
                             112.0                       1.71000E-02      6.60000E-04
                             114.0                       1.37000E-02      5.90000E-04
                             116.0                       1.18000E-02      5.50000E-04
                             118.0                       1.38000E-02      5.90000E-04
                             120.0                       1.45000E-02      6.10000E-04
                             122.0                       1.64000E-02      6.50000E-04
                             124.0                       1.96000E-02      7.00000E-04
                             126.0                       2.65000E-02      8.20000E-04
                             128.0                       3.48000E-02      9.40000E-04
                             130.0                       4.42000E-02      1.06000E-03
                             132.0                       4.85000E-02      1.11000E-03
                             134.0                       5.11000E-02      1.14000E-03
                             136.0                       4.88000E-02      1.11000E-03
                             138.0                       4.50000E-02      1.70000E-03
                             140.0                       3.83000E-02      9.90000E-04
                             142.0                       3.14000E-02      8.90000E-04
                             144.0                       2.17000E-02      7.40000E-04
                             146.0                       1.58000E-02      6.30000E-04
                             148.0                       9.50000E-03      4.90000E-04
                             150.0                       5.80000E-03      3.80000E-04
                             152.0                       4.00000E-03      3.20000E-04
                             154.0                       2.00000E-03      2.20000E-04
                             156.0                       1.00000E-03      1.60000E-04
                             158.0                       4.00000E-04      1.00000E-04
                             160.0                       2.00000E-04      6.00000E-05
