# entry-subent-pointer  : 22799-004-0 
# EXFOR reaction        : ['92-U-238', ['N,F'], 'MASS,SEC,FY'] 
# incident energy       : 3.5000e+00 MeV 
# target                : U-238 
# product               : 74.0 <= A <= 162.0 
# level energy          : - 
# MF-MT number          : 8 - 454 
# first author          : C.M.Zoeller 
# institute             : (2GERJUL): Forschungszentrum Juelich, Juelich 
# reference             : (T,ZOELLER,1995) 
# year                  : 1995 
# facility              : (LINAC): Linear accelerator 
# git                   : https://github.com/IAEA-NDS/exfor_master/blob/main/exforall/227/22799.x4 
# nds                   : https://nds.iaea.org/EXFOR/22799
#
# Charge(No Dim.)    Mass(No Dim.)  Isomer(No Dim.)    Yield(%/fiss)   dYield(%/fiss)
                              74.0                       1.00000E-04      2.00000E-05
                              76.0                       2.00000E-04      4.00000E-05
                              78.0                       5.00000E-04      6.00000E-05
                              80.0                       1.40000E-03      9.00000E-05
                              82.0                       2.60000E-03      1.30000E-04
                              84.0                       5.00000E-03      1.80000E-04
                              86.0                       9.10000E-03      2.40000E-04
                              88.0                       1.50000E-02      3.10000E-04
                              90.0                       2.40000E-02      3.90000E-04
                              92.0                       3.40000E-02      4.60000E-04
                              94.0                       4.56000E-02      5.40000E-04
                              96.0                       5.64000E-02      6.00000E-04
                              98.0                       6.16000E-02      6.30000E-04
                             100.0                       6.22000E-02      6.30000E-04
                             102.0                       5.73000E-02      6.00000E-04
                             104.0                       4.77000E-02      5.50000E-04
                             106.0                       3.41000E-02      4.70000E-04
                             108.0                       2.19000E-02      3.70000E-04
                             110.0                       1.12000E-02      2.70000E-04
                             112.0                       5.20000E-03      1.80000E-04
                             114.0                       2.70000E-03      1.30000E-04
                             116.0                       2.10000E-03      1.10000E-04
                             118.0                       2.00000E-03      1.10000E-04
                             120.0                       2.20000E-03      1.20000E-04
                             122.0                       3.20000E-03      1.40000E-04
                             124.0                       5.50000E-03      1.90000E-04
                             126.0                       9.90000E-03      2.50000E-04
                             128.0                       2.09000E-02      3.60000E-04
                             130.0                       3.46000E-02      4.70000E-04
                             132.0                       4.79000E-02      5.50000E-04
                             134.0                       5.77000E-02      6.10000E-04
                             136.0                       6.21000E-02      6.30000E-04
                             138.0                       6.20000E-02      6.30000E-04
                             140.0                       5.61000E-02      6.00000E-04
                             142.0                       4.52000E-02      5.40000E-04
                             144.0                       3.39000E-02      4.60000E-04
                             146.0                       2.38000E-02      3.90000E-04
                             148.0                       1.48000E-02      3.10000E-04
                             150.0                       9.00000E-03      2.40000E-04
                             152.0                       4.90000E-03      1.80000E-04
                             154.0                       2.60000E-03      1.30000E-04
                             156.0                       1.30000E-03      9.00000E-05
                             158.0                       5.00000E-04      6.00000E-05
                             160.0                       2.00000E-04      3.00000E-05
                             162.0                       1.00000E-04      2.00000E-05
