# entry-subent-pointer  : 22799-004-0 
# EXFOR reaction        : ['92-U-238', ['N,F'], 'MASS,SEC,FY'] 
# incident energy       : 5.5000e+00 MeV 
# target                : U-238 
# product               : 72.0 <= A <= 162.0 
# level energy          : - 
# MF-MT number          : 8 - 454 
# first author          : C.M.Zoeller 
# institute             : (2GERJUL): Forschungszentrum Juelich, Juelich 
# reference             : (T,ZOELLER,1995) 
# year                  : 1995 
# facility              : (LINAC): Linear accelerator 
# git                   : https://github.com/IAEA-NDS/exfor_master/blob/main/exforall/227/22799.x4 
# nds                   : https://nds.iaea.org/EXFOR/22799
#
# Charge(No Dim.)    Mass(No Dim.)  Isomer(No Dim.)    Yield(%/fiss)   dYield(%/fiss)
                              72.0                       1.00000E-04      3.00000E-05
                              74.0                       1.00000E-04      4.00000E-05
                              76.0                       3.00000E-04      6.00000E-05
                              78.0                       7.00000E-04      9.00000E-05
                              80.0                       1.50000E-03      1.30000E-04
                              82.0                       3.30000E-03      1.90000E-04
                              84.0                       5.50000E-03      2.50000E-04
                              86.0                       1.02000E-02      3.40000E-04
                              88.0                       1.78000E-02      4.80000E-04
                              90.0                       2.59000E-02      5.40000E-04
                              92.0                       3.46000E-02      6.30000E-04
                              94.0                       4.50000E-02      7.10000E-04
                              96.0                       5.41000E-02      7.80000E-04
                              98.0                       5.88000E-02      8.20000E-04
                             100.0                       6.04000E-02      8.30000E-04
                             102.0                       5.50000E-02      7.90000E-04
                             104.0                       4.62000E-02      7.20000E-04
                             106.0                       3.37000E-02      6.20000E-04
                             108.0                       2.19000E-02      5.00000E-04
                             110.0                       1.19000E-02      3.70000E-04
                             112.0                       6.90000E-03      2.80000E-04
                             114.0                       3.70000E-03      2.10000E-04
                             116.0                       2.30000E-03      1.60000E-04
                             118.0                       2.30000E-03      1.60000E-04
                             120.0                       3.10000E-03      1.90000E-04
                             122.0                       4.50000E-03      2.30000E-04
                             124.0                       6.80000E-03      2.80000E-04
                             126.0                       1.14000E-02      3.60000E-04
                             128.0                       2.24000E-02      5.00000E-04
                             130.0                       3.56000E-02      6.40000E-04
                             132.0                       4.83000E-02      7.40000E-04
                             134.0                       5.56000E-02      7.90000E-04
                             136.0                       6.03000E-02      8.30000E-04
                             138.0                       5.89000E-02      8.20000E-04
                             140.0                       5.29000E-02      7.70000E-04
                             142.0                       4.37000E-02      7.00000E-04
                             144.0                       3.34000E-02      6.20000E-04
                             146.0                       2.45000E-02      5.30000E-04
                             148.0                       1.66000E-02      4.30000E-04
                             150.0                       9.20000E-03      3.20000E-04
                             152.0                       5.20000E-03      2.40000E-04
                             154.0                       2.90000E-03      1.80000E-04
                             156.0                       1.40000E-03      1.30000E-04
                             158.0                       7.00000E-04      9.00000E-05
                             160.0                       3.00000E-04      6.00000E-05
                             162.0                       1.00000E-04      4.00000E-05
