# entry-subent-pointer  : 22799-004-0 
# EXFOR reaction        : ['92-U-238', ['N,F'], 'MASS,SEC,FY'] 
# incident energy       : 1.0000e+01 MeV 
# target                : U-238 
# product               : 72.0 <= A <= 162.0 
# level energy          : - 
# MF-MT number          : 8 - 454 
# first author          : C.M.Zoeller 
# institute             : (2GERJUL): Forschungszentrum Juelich, Juelich 
# reference             : (T,ZOELLER,1995) 
# year                  : 1995 
# facility              : (LINAC): Linear accelerator 
# git                   : https://github.com/IAEA-NDS/exfor_master/blob/main/exforall/227/22799.x4 
# nds                   : https://nds.iaea.org/EXFOR/22799
#
# Charge(No Dim.)    Mass(No Dim.)  Isomer(No Dim.)    Yield(%/fiss)   dYield(%/fiss)
                              72.0                       1.00000E-04      3.00000E-05
                              74.0                       3.00000E-04      7.00000E-05
                              76.0                       6.00000E-04      9.00000E-05
                              78.0                       9.00000E-04      1.10000E-04
                              80.0                       1.50000E-03      1.40000E-04
                              82.0                       3.40000E-03      2.10000E-04
                              84.0                       6.60000E-03      3.00000E-04
                              86.0                       1.10000E-02      3.90000E-04
                              88.0                       1.76000E-02      4.90000E-04
                              90.0                       2.64000E-02      6.00000E-04
                              92.0                       3.69000E-02      7.10000E-04
                              94.0                       4.58000E-02      7.90000E-04
                              96.0                       5.47000E-02      8.60000E-04
                              98.0                       5.76000E-02      8.90000E-04
                             100.0                       5.63000E-02      8.70000E-04
                             102.0                       5.22000E-02      8.40000E-04
                             104.0                       4.43000E-02      7.80000E-04
                             106.0                       3.22000E-02      6.60000E-04
                             108.0                       2.07000E-02      5.30000E-04
                             110.0                       1.32000E-02      4.20000E-04
                             112.0                       8.50000E-03      3.40000E-04
                             114.0                       5.90000E-03      2.80000E-04
                             116.0                       4.50000E-03      2.50000E-04
                             118.0                       4.20000E-03      2.40000E-04
                             120.0                       5.90000E-03      2.80000E-04
                             122.0                       7.00000E-03      3.10000E-04
                             124.0                       1.01000E-02      3.70000E-04
                             126.0                       1.52000E-02      4.50000E-04
                             128.0                       2.75000E-02      6.10000E-04
                             130.0                       3.88000E-02      7.30000E-04
                             132.0                       5.03000E-02      8.30000E-04
                             134.0                       5.46000E-02      8.60000E-04
                             136.0                       5.88000E-02      8.90000E-04
                             138.0                       5.41000E-02      8.60000E-04
                             140.0                       5.08000E-02      8.30000E-04
                             142.0                       4.11000E-02      7.50000E-04
                             144.0                       2.94000E-02      6.30000E-04
                             146.0                       2.09000E-02      5.30000E-04
                             148.0                       1.37000E-02      4.30000E-04
                             150.0                       8.00000E-03      3.30000E-04
                             152.0                       4.30000E-03      2.40000E-04
                             154.0                       2.30000E-03      1.80000E-04
                             156.0                       1.10000E-03      1.20000E-04
                             158.0                       6.00000E-04      9.00000E-05
                             160.0                       5.00000E-04      8.00000E-05
                             162.0                       2.00000E-04      5.00000E-05
