# entry-subent-pointer  : 11552-009-0 
# EXFOR reaction        : ['14-SI-28', ['N,A'], '12-MG-25,PAR,SIG'] 
# incident energy       : 6.7600e+00 MeV - 8.4200e+00 MeV 
# target                : Si-28 
# product               : Mg-25 
# level energy          : - 
# MF-MT number          : 3 - 802 
# first author          : B.Mainsbridge 
# institute             : (1USARIC): Rice University, Houston, TX 
# reference             : (J,NP,48,83,1963) 
# year                  : 1963 
# facility              : (VDG): Van de Graaff 
# git                   : https://github.com/IAEA-NDS/exfor_master/blob/main/exforall/115/11552.x4 
# nds                   : https://nds.iaea.org/EXFOR/11552
#
#       E_in(MeV)       dE_in(MeV)            XS(B)           dXS(B)
      6.76000E+00      0.00000E+00      4.00000E-03      1.20000E-03
      6.78000E+00      0.00000E+00      5.00000E-03      1.50000E-03
      6.80000E+00      0.00000E+00      7.30000E-03      2.19000E-03
      6.83000E+00      0.00000E+00      7.30000E-03      2.19000E-03
      6.85000E+00      0.00000E+00      8.70000E-03      2.61000E-03
      6.87000E+00      0.00000E+00      1.41000E-02      4.23000E-03
      6.90000E+00      0.00000E+00      1.28000E-02      3.84000E-03
      6.92000E+00      0.00000E+00      1.57000E-02      4.71000E-03
      6.95000E+00      0.00000E+00      1.45000E-02      4.35000E-03
      6.97000E+00      0.00000E+00      1.36000E-02      4.08000E-03
      6.99000E+00      0.00000E+00      1.40000E-02      4.20000E-03
      7.02000E+00      3.00000E-02      1.48000E-02      4.44000E-03
      7.04000E+00      0.00000E+00      1.97000E-02      5.91000E-03
      7.07000E+00      0.00000E+00      1.63000E-02      4.89000E-03
      7.09000E+00      0.00000E+00      1.40000E-02      4.20000E-03
      7.11000E+00      0.00000E+00      1.68000E-02      5.04000E-03
      7.14000E+00      0.00000E+00      1.93000E-02      5.79000E-03
      7.16000E+00      0.00000E+00      1.55000E-02      4.65000E-03
      7.19000E+00      0.00000E+00      1.51000E-02      4.53000E-03
      7.21000E+00      0.00000E+00      1.21000E-02      3.63000E-03
      7.23000E+00      0.00000E+00      1.56000E-02      4.68000E-03
      7.26000E+00      0.00000E+00      1.74000E-02      5.22000E-03
      7.29000E+00      0.00000E+00      1.66000E-02      4.98000E-03
      7.31000E+00      0.00000E+00      1.61000E-02      4.83000E-03
      7.33000E+00      0.00000E+00      1.90000E-02      5.70000E-03
      7.36000E+00      0.00000E+00      2.62000E-02      7.86000E-03
      7.38000E+00      0.00000E+00      3.19000E-02      9.57000E-03
      7.41000E+00      0.00000E+00      3.67000E-02      1.10100E-02
      7.43000E+00      0.00000E+00      2.99000E-02      8.97000E-03
      7.46000E+00      0.00000E+00      2.98000E-02      8.94000E-03
      7.48000E+00      0.00000E+00      2.50000E-02      7.50000E-03
      7.51000E+00      0.00000E+00      1.98000E-02      5.94000E-03
      7.53000E+00      0.00000E+00      1.57000E-02      4.71000E-03
      7.56000E+00      0.00000E+00      1.94000E-02      5.82000E-03
      7.58000E+00      0.00000E+00      2.01000E-02      6.03000E-03
      7.61000E+00      0.00000E+00      2.42000E-02      7.26000E-03
      7.63000E+00      0.00000E+00      2.86000E-02      8.58000E-03
      7.66000E+00      0.00000E+00      3.48000E-02      1.04400E-02
      7.69000E+00      0.00000E+00      3.31000E-02      9.93000E-03
      7.71000E+00      0.00000E+00      3.33000E-02      9.99000E-03
      7.74000E+00      0.00000E+00      4.01000E-02      1.20300E-02
      7.76000E+00      0.00000E+00      4.62000E-02      1.38600E-02
      7.79000E+00      0.00000E+00      4.86000E-02      1.45800E-02
      7.81000E+00      0.00000E+00      5.42000E-02      1.62600E-02
      7.84000E+00      0.00000E+00      5.50000E-02      1.65000E-02
      7.87000E+00      0.00000E+00      5.74000E-02      1.72200E-02
      7.89000E+00      0.00000E+00      5.33000E-02      1.59900E-02
      7.92000E+00      0.00000E+00      5.13000E-02      1.53900E-02
      7.94000E+00      0.00000E+00      5.27000E-02      1.58100E-02
      7.97000E+00      0.00000E+00      4.37000E-02      1.31100E-02
      7.99000E+00      0.00000E+00      4.94000E-02      1.48200E-02
      8.02000E+00      2.00000E-02      5.35000E-02      1.60500E-02
      8.05000E+00      0.00000E+00      5.19000E-02      1.55700E-02
      8.07000E+00      0.00000E+00      4.11000E-02      1.23300E-02
      8.10000E+00      0.00000E+00      4.15000E-02      1.24500E-02
      8.13000E+00      0.00000E+00      4.68000E-02      1.40400E-02
      8.15000E+00      0.00000E+00      5.53000E-02      1.65900E-02
      8.18000E+00      0.00000E+00      5.54000E-02      1.66200E-02
      8.20000E+00      0.00000E+00      4.77000E-02      1.43100E-02
      8.23000E+00      0.00000E+00      3.78000E-02      1.13400E-02
      8.26000E+00      0.00000E+00      3.73000E-02      1.11900E-02
      8.29000E+00      0.00000E+00      4.40000E-02      1.32000E-02
      8.31000E+00      0.00000E+00      5.48000E-02      1.64400E-02
      8.34000E+00      0.00000E+00      6.00000E-02      1.80000E-02
      8.37000E+00      0.00000E+00      7.04000E-02      2.11200E-02
      8.39000E+00      0.00000E+00      8.67000E-02      2.60100E-02
      8.42000E+00      0.00000E+00      9.66000E-02      2.89800E-02
