# entry-subent-pointer  : 21543-013-0 
# EXFOR reaction        : ['92-U-235', ['N,F'], 'MASS,CHN,FY,,MXW'] 
# incident energy       : 2.5300e-08 MeV 
# target                : U-235 
# product               : 118.0 <= A <= 161.0 
# level energy          : - 
# MF-MT number          : 8 - 459 
# first author          : M.Asghar 
# institute             : (2FR ILL): Institut Laue-Langevin, Grenoble 
# reference             : (J,NP/A,292,225,197711) 
# year                  : 1977 
# facility              : (REAC): Reactor 
# git                   : https://github.com/IAEA-NDS/exfor_master/blob/main/exforall/215/21543.x4 
# nds                   : https://nds.iaea.org/EXFOR/21543
#
# Charge(No Dim.)    Mass(No Dim.)  Isomer(No Dim.)    Yield(%/fiss)   dYield(%/fiss)
                             118.0                       1.32910E-04      0.00000E+00
                             119.0                       1.60060E-04      0.00000E+00
                             120.0                       1.64530E-04      0.00000E+00
                             121.0                       2.02830E-04      0.00000E+00
                             122.0                       2.41530E-04      0.00000E+00
                             123.0                       3.61560E-04      0.00000E+00
                             124.0                       6.42550E-04      0.00000E+00
                             125.0                       1.23540E-03      0.00000E+00
                             126.0                       2.61230E-03      0.00000E+00
                             127.0                       5.51140E-03      0.00000E+00
                             128.0                       1.05170E-02      0.00000E+00
                             129.0                       1.69040E-02      0.00000E+00
                             130.0                       2.47920E-02      0.00000E+00
                             131.0                       3.39520E-02      0.00000E+00
                             132.0                       4.48400E-02      0.00000E+00
                             133.0                       5.36550E-02      0.00000E+00
                             134.0                       5.86550E-02      0.00000E+00
                             135.0                       5.87030E-02      0.00000E+00
                             136.0                       5.96610E-02      0.00000E+00
                             137.0                       6.20080E-02      0.00000E+00
                             138.0                       6.44660E-02      0.00000E+00
                             139.0                       6.61160E-02      0.00000E+00
                             140.0                       6.37490E-02      0.00000E+00
                             141.0                       5.96400E-02      0.00000E+00
                             142.0                       5.74910E-02      0.00000E+00
                             143.0                       5.48780E-02      0.00000E+00
                             144.0                       4.97310E-02      0.00000E+00
                             145.0                       4.06510E-02      0.00000E+00
                             146.0                       3.14620E-02      0.00000E+00
                             147.0                       2.30720E-02      0.00000E+00
                             148.0                       1.74640E-02      0.00000E+00
                             149.0                       1.35780E-02      0.00000E+00
                             150.0                       1.00460E-02      0.00000E+00
                             151.0                       6.96940E-03      0.00000E+00
                             152.0                       4.70460E-03      0.00000E+00
                             153.0                       3.36280E-03      0.00000E+00
                             154.0                       2.24980E-03      0.00000E+00
                             155.0                       1.36960E-03      0.00000E+00
                             156.0                       8.37350E-04      0.00000E+00
                             157.0                       6.47390E-04      0.00000E+00
                             158.0                       5.72800E-04      0.00000E+00
                             159.0                       5.02100E-04      0.00000E+00
                             160.0                       4.27520E-04      0.00000E+00
                             161.0                       3.54870E-04      0.00000E+00
