# entry-subent-pointer  : 23716-009-0 
# EXFOR reaction        : ['90-TH-232', ['N,F'], 'MASS,PRE,FY'] 
# incident energy       : 1.4000e+01 MeV 
# target                : Th-232 
# product               : 117.27 <= A <= 157.35 
# level energy          : - 
# MF-MT number          : 8 - 460 
# first author          : W.Holubarsch 
# institute             : (2GERTUE): Universitaet Tuebingen 
# reference             : (J,NP/A,171,631,1971) 
# year                  : 1971 
# facility              : (VDG): Van de Graaff 
# git                   : https://github.com/IAEA-NDS/exfor_master/blob/main/exforall/237/23716.x4 
# nds                   : https://nds.iaea.org/EXFOR/23716
#
# Charge(No Dim.)    Mass(No Dim.)  Isomer(No Dim.)    Yield(%/fiss)   dYield(%/fiss)
                            117.27                       2.25300E-03      0.00000E+00
                            119.39                       2.21000E-03      0.00000E+00
                            121.41                       2.24700E-03      0.00000E+00
                            123.43                       2.20500E-03      0.00000E+00
                            125.35                       2.32200E-03      0.00000E+00
                            127.28                       3.07900E-03      0.00000E+00
                            129.21                       4.15600E-03      0.00000E+00
                            131.34                       5.51300E-03      0.00000E+00
                            133.27                       7.11000E-03      0.00000E+00
                             135.3                       8.62700E-03      0.00000E+00
                            137.23                       9.70400E-03      0.00000E+00
                            139.16                       1.00210E-02      0.00000E+00
                            141.46                       9.33800E-03      0.00000E+00
                            143.28                       8.17600E-03      0.00000E+00
                            145.29                       6.37400E-03      0.00000E+00
                            147.29                       4.25200E-03      0.00000E+00
                            149.49                       2.41000E-03      0.00000E+00
                             151.3                       1.24800E-03      0.00000E+00
                            153.32                       6.05000E-04      0.00000E+00
                            155.33                       2.43000E-04      0.00000E+00
                            157.35                       4.00000E-05      0.00000E+00
