# entry-subent-pointer  : 14016-002-0 
# EXFOR reaction        : (92-U-235(N,F),,SIG) 
# incident energy       : 3.0252e+00 MeV - 2.0180e+02 MeV 
# target                : U-235 
# product               : - 
# level energy          : - 
# MF-MT number          : 3 - 18 
# first author          : Lisowski 
# institute             : (1USALAS): Los Alamos National Laboratory, NM 
# reference             : (S,NEANDC-305,177,1991) 
# year                  : 1991 
# facility              : (LINAC): Linear accelerator 
# git                   : https://github.com/IAEA-NDS/exfor_master/blob/main/exforall/140/14016.x4 
# nds                   : https://nds.iaea.org/EXFOR/14016
#
#       E_in(MeV)         dE_in(MeV)        XS(B)             dXS(B)
        3.0252E+00        0.0000E+00        1.2185E+00        1.4622E-02
        3.1174E+00        0.0000E+00        1.2019E+00        1.4543E-02
        3.2123E+00        0.0000E+00        1.2102E+00        1.4522E-02
        3.3101E+00        0.0000E+00        1.1768E+00        1.4239E-02
        3.4110E+00        0.0000E+00        1.1953E+00        1.5061E-02
        3.5148E+00        0.0000E+00        1.1696E+00        1.4854E-02
        3.6219E+00        0.0000E+00        1.1628E+00        1.4768E-02
        3.7322E+00        0.0000E+00        1.1727E+00        1.4893E-02
        3.8459E+00        0.0000E+00        1.1375E+00        1.3991E-02
        3.9630E+00        0.0000E+00        1.1293E+00        1.3890E-02
        4.0837E+00        0.0000E+00        1.1006E+00        1.3647E-02
        4.2081E+00        0.0000E+00        1.1320E+00        1.3924E-02
        4.3363E+00        0.0000E+00        1.1303E+00        1.4468E-02
        4.4683E+00        0.0000E+00        1.1160E+00        1.3727E-02
        4.6044E+00        0.0000E+00        1.1171E+00        1.3740E-02
        4.7447E+00        0.0000E+00        1.0751E+00        1.3439E-02
        4.8892E+00        0.0000E+00        1.0749E+00        1.3436E-02
        5.0381E+00        0.0000E+00        1.0685E+00        1.3356E-02
        5.1915E+00        0.0000E+00        1.0411E+00        1.3118E-02
        5.3496E+00        0.0000E+00        1.0355E+00        1.3047E-02
        5.5126E+00        0.0000E+00        1.0056E+00        1.2872E-02
        5.6805E+00        0.0000E+00        1.0099E+00        1.2826E-02
        5.8535E+00        0.0000E+00        1.0326E+00        1.3011E-02
        6.0318E+00        0.0000E+00        1.0670E+00        1.3978E-02
        6.2155E+00        0.0000E+00        1.1740E+00        1.5027E-02
        6.4048E+00        0.0000E+00        1.2522E+00        1.6654E-02
        6.5998E+00        0.0000E+00        1.3266E+00        1.7246E-02
        6.8008E+00        0.0000E+00        1.4176E+00        1.8571E-02
        7.0080E+00        0.0000E+00        1.5113E+00        1.9949E-02
        7.2214E+00        0.0000E+00        1.5778E+00        2.1143E-02
        7.4414E+00        0.0000E+00        1.6469E+00        2.3057E-02
        7.6680E+00        0.0000E+00        1.6979E+00        2.4110E-02
        7.9015E+00        0.0000E+00        1.7813E+00        2.5294E-02
        8.1422E+00        0.0000E+00        1.7659E+00        2.5252E-02
        8.3902E+00        0.0000E+00        1.7697E+00        2.5307E-02
        8.6457E+00        0.0000E+00        1.7544E+00        2.5088E-02
        8.9090E+00        0.0000E+00        1.7507E+00        2.5035E-02
        9.1804E+00        0.0000E+00        1.7538E+00        2.5781E-02
        9.4600E+00        0.0000E+00        1.7683E+00        2.6701E-02
        9.7481E+00        0.0000E+00        1.7681E+00        2.6698E-02
        1.0045E+01        0.0000E+00        1.7589E+00        2.7263E-02
        1.0351E+01        0.0000E+00        1.7301E+00        2.7163E-02
        1.0666E+01        0.0000E+00        1.7520E+00        2.8032E-02
        1.0991E+01        0.0000E+00        1.7291E+00        2.7839E-02
        1.1326E+01        0.0000E+00        1.6995E+00        2.7702E-02
        1.1671E+01        0.0000E+00        1.6429E+00        2.7436E-02
        1.2026E+01        0.0000E+00        1.6921E+00        2.8427E-02
        1.2392E+01        0.0000E+00        1.7511E+00        3.0469E-02
        1.2770E+01        0.0000E+00        1.7953E+00        3.1597E-02
        1.3159E+01        0.0000E+00        1.8417E+00        3.2598E-02
        1.3560E+01        0.0000E+00        1.9611E+00        3.5692E-02
        1.3973E+01        0.0000E+00        2.0600E+00        3.8110E-02
        1.4398E+01        0.0000E+00        2.0968E+00        3.9000E-02
        1.4837E+01        0.0000E+00        2.1418E+00        4.1123E-02
        1.5289E+01        0.0000E+00        2.2048E+00        4.3214E-02
        1.5754E+01        0.0000E+00        2.2491E+00        4.5207E-02
        1.6234E+01        0.0000E+00        2.1729E+00        4.3023E-02
        1.6729E+01        0.0000E+00        2.0813E+00        4.1834E-02
        1.7238E+01        0.0000E+00        2.0438E+00        4.1694E-02
        1.7763E+01        0.0000E+00        2.0968E+00        4.3613E-02
        1.8304E+01        0.0000E+00        2.0315E+00        4.2458E-02
        1.8861E+01        0.0000E+00        2.0644E+00        4.4385E-02
        1.9436E+01        0.0000E+00        1.9662E+00        4.2273E-02
        2.0028E+01        0.0000E+00        2.0595E+00        4.5515E-02
        2.0638E+01        0.0000E+00        2.0588E+00        4.5499E-02
        2.1267E+01        0.0000E+00        2.0396E+00        4.4871E-02
        2.1914E+01        0.0000E+00        2.0581E+00        4.5690E-02
        2.2582E+01        0.0000E+00        2.0817E+00        4.6838E-02
        2.3269E+01        0.0000E+00        2.0942E+00        4.6910E-02
        2.3978E+01        0.0000E+00        2.1008E+00        4.7688E-02
        2.4708E+01        0.0000E+00        2.1014E+00        4.8542E-02
        2.5461E+01        0.0000E+00        2.0800E+00        3.3904E-02
        2.6236E+01        0.0000E+00        2.0916E+00        3.4930E-02
        2.7035E+01        0.0000E+00        2.0892E+00        3.5725E-02
        2.7859E+01        0.0000E+00        2.0948E+00        3.5612E-02
        2.8707E+01        0.0000E+00        2.0297E+00        3.4505E-02
        2.9582E+01        0.0000E+00        2.0840E+00        5.1266E-02
        3.0483E+01        0.0000E+00        2.0468E+00        5.0761E-02
        3.1411E+01        0.0000E+00        2.0175E+00        5.0841E-02
        3.2368E+01        0.0000E+00        2.1295E+00        5.4941E-02
        3.3354E+01        0.0000E+00        2.0605E+00        5.3985E-02
        3.4369E+01        0.0000E+00        2.0661E+00        5.5371E-02
        3.5416E+01        0.0000E+00        2.0299E+00        5.4807E-02
        3.6495E+01        0.0000E+00        1.9679E+00        5.4511E-02
        3.7606E+01        0.0000E+00        1.9725E+00        5.6611E-02
        3.8752E+01        0.0000E+00        1.9374E+00        5.6960E-02
        3.9932E+01        0.0000E+00        2.0046E+00        6.2343E-02
        4.1148E+01        0.0000E+00        1.9844E+00        6.3699E-02
        4.2402E+01        0.0000E+00        1.9264E+00        6.2801E-02
        4.3693E+01        0.0000E+00        1.9509E+00        6.7111E-02
        4.5024E+01        0.0000E+00        1.9337E+00        6.7680E-02
        4.6395E+01        0.0000E+00        1.9135E+00        6.9077E-02
        4.7808E+01        0.0000E+00        1.8596E+00        6.8619E-02
        4.9264E+01        0.0000E+00        1.8166E+00        7.9204E-02
        5.0764E+01        0.0000E+00        1.8273E+00        8.1680E-02
        5.2311E+01        0.0000E+00        1.7843E+00        8.0829E-02
        5.3904E+01        0.0000E+00        1.6740E+00        7.5665E-02
        5.5546E+01        0.0000E+00        1.8334E+00        9.0020E-02
        5.7237E+01        0.0000E+00        1.9005E+00        9.8446E-02
        5.8981E+01        0.0000E+00        1.7882E+00        9.1556E-02
        6.0777E+01        0.0000E+00        1.7493E+00        9.0089E-02
        6.2628E+01        0.0000E+00        1.8492E+00        5.6770E-02
        6.4535E+01        0.0000E+00        1.7598E+00        5.4202E-02
        6.6501E+01        0.0000E+00        1.7378E+00        5.3524E-02
        6.8526E+01        0.0000E+00        1.7405E+00        5.3607E-02
        7.0614E+01        0.0000E+00        1.6978E+00        5.2462E-02
        7.2764E+01        0.0000E+00        1.7085E+00        5.2793E-02
        7.4980E+01        0.0000E+00        1.7093E+00        5.3159E-02
        7.7264E+01        0.0000E+00        1.7092E+00        5.3156E-02
        7.9617E+01        0.0000E+00        1.6793E+00        5.2562E-02
        8.2042E+01        0.0000E+00        1.6891E+00        6.9253E-02
        8.4541E+01        0.0000E+00        1.6524E+00        6.7748E-02
        8.7116E+01        0.0000E+00        1.6266E+00        6.7016E-02
        8.9769E+01        0.0000E+00        1.5720E+00        6.4609E-02
        9.2503E+01        0.0000E+00        1.5651E+00        6.4639E-02
        9.5320E+01        0.0000E+00        1.5423E+00        6.3697E-02
        9.8224E+01        0.0000E+00        1.5690E+00        6.4957E-02
        1.0121E+02        0.0000E+00        1.5472E+00        6.4054E-02
        1.0430E+02        0.0000E+00        1.4838E+00        6.1429E-02
        1.0747E+02        0.0000E+00        1.5402E+00        7.9012E-02
        1.1075E+02        0.0000E+00        1.4907E+00        7.6473E-02
        1.1412E+02        0.0000E+00        1.4987E+00        7.7033E-02
        1.1760E+02        0.0000E+00        1.5294E+00        7.8917E-02
        1.2118E+02        0.0000E+00        1.4581E+00        7.5092E-02
        1.2487E+02        0.0000E+00        1.4818E+00        7.6757E-02
        1.2867E+02        0.0000E+00        1.4551E+00        7.5083E-02
        1.3259E+02        0.0000E+00        1.4393E+00        7.4700E-02
        1.3663E+02        0.0000E+00        1.4818E+00        7.6905E-02
        1.4079E+02        0.0000E+00        1.4482E+00        7.5306E-02
        1.4508E+02        0.0000E+00        1.4363E+00        7.4831E-02
        1.4950E+02        0.0000E+00        1.4472E+00        7.5544E-02
        1.5405E+02        0.0000E+00        1.4690E+00        7.6976E-02
        1.5874E+02        0.0000E+00        1.4353E+00        7.5353E-02
        1.6358E+02        0.0000E+00        1.4413E+00        7.5957E-02
        1.6856E+02        0.0000E+00        1.4304E+00        7.5382E-02
        1.7369E+02        0.0000E+00        1.4294E+00        7.5615E-02
        1.7898E+02        0.0000E+00        1.4650E+00        7.7938E-02
        1.8443E+02        0.0000E+00        1.4462E+00        7.7082E-02
        1.9005E+02        0.0000E+00        1.4571E+00        7.7955E-02
        1.9584E+02        0.0000E+00        1.4155E+00        7.5588E-02
        2.0180E+02        0.0000E+00        1.4521E+00        7.8413E-02
