# entry-subent-pointer  : 10170-002-0 
# EXFOR reaction        : (92-U-235(N,F),,SIG) 
# incident energy       : 1.5204e-03 MeV - 1.5000e-02 MeV 
# target                : U-235 
# product               : - 
# level energy          : - 
# MF-MT number          : 3 - 18 
# first author          : Bowman 
# institute             : (1USALRL): Lawrence Livermore National Laboratory, Livermore, CA 
# reference             : (C,70HELSINKI,2,65,197006) 
# year                  : 1970 
# facility              : (LINAC): Linear accelerator 
# git                   : https://github.com/IAEA-NDS/exfor_master/blob/main/exforall/101/10170.x4 
# nds                   : https://nds.iaea.org/EXFOR/10170
#
#       E_in(MeV)         dE_in(MeV)        XS(B)             dXS(B)
        1.5204E-03        0.0000E+00        7.8940E+00        0.0000E+00
        1.5219E-03        0.0000E+00        6.9530E+00        0.0000E+00
        1.5234E-03        0.0000E+00        7.2930E+00        0.0000E+00
        1.5250E-03        0.0000E+00        5.5960E+00        0.0000E+00
        1.5265E-03        0.0000E+00        5.2560E+00        0.0000E+00
        1.5296E-03        0.0000E+00        5.0870E+00        0.0000E+00
        1.5312E-03        0.0000E+00        5.1790E+00        0.0000E+00
        1.5327E-03        0.0000E+00        6.0890E+00        0.0000E+00
        1.5343E-03        0.0000E+00        7.8630E+00        0.0000E+00
        1.5358E-03        0.0000E+00        8.1870E+00        0.0000E+00
        1.5374E-03        0.0000E+00        9.4830E+00        0.0000E+00
        1.5389E-03        0.0000E+00        8.5270E+00        0.0000E+00
        1.5420E-03        0.0000E+00        7.7860E+00        0.0000E+00
        1.5435E-03        0.0000E+00        7.8480E+00        0.0000E+00
        1.5451E-03        0.0000E+00        7.8790E+00        0.0000E+00
        1.5466E-03        0.0000E+00        7.7860E+00        0.0000E+00
        1.5482E-03        0.0000E+00        7.4000E+00        0.0000E+00
        1.5497E-03        0.0000E+00        6.9530E+00        0.0000E+00
        1.5513E-03        0.0000E+00        6.7680E+00        0.0000E+00
        1.5528E-03        0.0000E+00        6.0430E+00        0.0000E+00
        1.5543E-03        0.0000E+00        5.4420E+00        0.0000E+00
        1.5559E-03        0.0000E+00        6.3210E+00        0.0000E+00
        1.5574E-03        0.0000E+00        7.9250E+00        0.0000E+00
        1.5590E-03        0.0000E+00        7.3390E+00        0.0000E+00
        1.5605E-03        0.0000E+00        8.6960E+00        0.0000E+00
        1.5621E-03        0.0000E+00        1.0825E+01        0.0000E+00
        1.5636E-03        0.0000E+00        1.0671E+01        0.0000E+00
        1.5652E-03        0.0000E+00        6.3360E+00        0.0000E+00
        1.5667E-03        0.0000E+00        9.4060E+00        0.0000E+00
        1.5682E-03        0.0000E+00        6.7530E+00        0.0000E+00
        1.5698E-03        0.0000E+00        6.1360E+00        0.0000E+00
        1.5713E-03        0.0000E+00        7.7400E+00        0.0000E+00
        1.5729E-03        0.0000E+00        7.5860E+00        0.0000E+00
        1.5744E-03        0.0000E+00        7.0770E+00        0.0000E+00
        1.5760E-03        0.0000E+00        6.2740E+00        0.0000E+00
        1.5775E-03        0.0000E+00        6.6450E+00        0.0000E+00
        1.5791E-03        0.0000E+00        4.5780E+00        0.0000E+00
        1.5806E-03        0.0000E+00        4.1920E+00        0.0000E+00
        1.5852E-03        0.0000E+00        4.9940E+00        0.0000E+00
        1.5868E-03        0.0000E+00        5.1180E+00        0.0000E+00
        1.5883E-03        0.0000E+00        6.8450E+00        0.0000E+00
        1.5899E-03        0.0000E+00        6.2590E+00        0.0000E+00
        1.5914E-03        0.0000E+00        6.6450E+00        0.0000E+00
        1.5930E-03        0.0000E+00        6.8760E+00        0.0000E+00
        1.5961E-03        0.0000E+00        8.1720E+00        0.0000E+00
        1.5976E-03        0.0000E+00        8.3410E+00        0.0000E+00
        1.6007E-03        0.0000E+00        6.5680E+00        0.0000E+00
        1.6038E-03        0.0000E+00        6.9990E+00        0.0000E+00
        1.6053E-03        0.0000E+00        5.7960E+00        0.0000E+00
        1.6069E-03        0.0000E+00        6.0280E+00        0.0000E+00
        1.6100E-03        0.0000E+00        6.5680E+00        0.0000E+00
        1.6115E-03        0.0000E+00        7.4160E+00        0.0000E+00
        1.6130E-03        0.0000E+00        8.5270E+00        0.0000E+00
        1.6161E-03        0.0000E+00        8.3110E+00        0.0000E+00
        1.6177E-03        0.0000E+00        7.8020E+00        0.0000E+00
        1.6192E-03        0.0000E+00        6.8300E+00        0.0000E+00
        1.6208E-03        0.0000E+00        7.2770E+00        0.0000E+00
        1.6239E-03        0.0000E+00        6.4750E+00        0.0000E+00
        1.6254E-03        0.0000E+00        6.5520E+00        0.0000E+00
        1.6270E-03        0.0000E+00        6.3980E+00        0.0000E+00
        1.6285E-03        0.0000E+00        8.8040E+00        0.0000E+00
        1.6300E-03        0.0000E+00        7.6470E+00        0.0000E+00
        1.6316E-03        0.0000E+00        9.1280E+00        0.0000E+00
        1.6331E-03        0.0000E+00        9.2210E+00        0.0000E+00
        1.6347E-03        0.0000E+00        1.0023E+01        0.0000E+00
        1.6352E-03        0.0000E+00        8.3650E+00        0.0000E+00
        1.6377E-03        0.0000E+00        8.1680E+00        0.0000E+00
        1.6402E-03        0.0000E+00        8.4400E+00        0.0000E+00
        1.6409E-03        0.0000E+00        9.0200E+00        0.0000E+00
        1.6414E-03        0.0000E+00        7.7850E+00        0.0000E+00
        1.6427E-03        0.0000E+00        8.6620E+00        0.0000E+00
        1.6439E-03        0.0000E+00        8.1190E+00        0.0000E+00
        1.6451E-03        0.0000E+00        8.2540E+00        0.0000E+00
        1.6470E-03        0.0000E+00        9.6220E+00        0.0000E+00
        1.6476E-03        0.0000E+00        8.4640E+00        0.0000E+00
        1.6486E-03        0.0000E+00        9.4520E+00        0.0000E+00
        1.6501E-03        0.0000E+00        1.0424E+01        0.0000E+00
        1.6513E-03        0.0000E+00        8.0320E+00        0.0000E+00
        1.6517E-03        0.0000E+00        1.0902E+01        0.0000E+00
        1.6532E-03        0.0000E+00        1.1365E+01        0.0000E+00
        1.6548E-03        0.0000E+00        9.1590E+00        0.0000E+00
        1.6562E-03        0.0000E+00        7.8100E+00        0.0000E+00
        1.6587E-03        0.0000E+00        7.0700E+00        0.0000E+00
        1.6600E-03        0.0000E+00        6.7360E+00        0.0000E+00
        1.6612E-03        0.0000E+00        6.9340E+00        0.0000E+00
        1.6624E-03        0.0000E+00        7.6740E+00        0.0000E+00
        1.6649E-03        0.0000E+00        8.8840E+00        0.0000E+00
        1.6661E-03        0.0000E+00        9.0440E+00        0.0000E+00
        1.6671E-03        0.0000E+00        9.4980E+00        0.0000E+00
        1.6686E-03        0.0000E+00        8.9830E+00        0.0000E+00
        1.6698E-03        0.0000E+00        6.7610E+00        0.0000E+00
        1.6711E-03        0.0000E+00        7.6250E+00        0.0000E+00
        1.6723E-03        0.0000E+00        5.3290E+00        0.0000E+00
        1.6748E-03        0.0000E+00        4.5150E+00        0.0000E+00
        1.6760E-03        0.0000E+00        5.0330E+00        0.0000E+00
        1.6797E-03        0.0000E+00        4.9100E+00        0.0000E+00
        1.6810E-03        0.0000E+00        5.2680E+00        0.0000E+00
        1.6822E-03        0.0000E+00        5.7370E+00        0.0000E+00
        1.6834E-03        0.0000E+00        6.1690E+00        0.0000E+00
        1.6847E-03        0.0000E+00        5.4400E+00        0.0000E+00
        1.6871E-03        0.0000E+00        6.4770E+00        0.0000E+00
        1.6908E-03        0.0000E+00        6.8100E+00        0.0000E+00
        1.6921E-03        0.0000E+00        7.1560E+00        0.0000E+00
        1.6946E-03        0.0000E+00        7.3530E+00        0.0000E+00
        1.6958E-03        0.0000E+00        7.6620E+00        0.0000E+00
        1.6970E-03        0.0000E+00        6.8470E+00        0.0000E+00
        1.6983E-03        0.0000E+00        7.0820E+00        0.0000E+00
        1.6995E-03        0.0000E+00        6.9710E+00        0.0000E+00
        1.7020E-03        0.0000E+00        6.5510E+00        0.0000E+00
        1.7032E-03        0.0000E+00        6.4150E+00        0.0000E+00
        1.7057E-03        0.0000E+00        6.8350E+00        0.0000E+00
        1.7069E-03        0.0000E+00        6.3290E+00        0.0000E+00
        1.7081E-03        0.0000E+00        6.9580E+00        0.0000E+00
        1.7094E-03        0.0000E+00        6.6990E+00        0.0000E+00
        1.7106E-03        0.0000E+00        7.2300E+00        0.0000E+00
        1.7131E-03        0.0000E+00        7.8350E+00        0.0000E+00
        1.7156E-03        0.0000E+00        6.7610E+00        0.0000E+00
        1.7168E-03        0.0000E+00        6.4280E+00        0.0000E+00
        1.7180E-03        0.0000E+00        5.0450E+00        0.0000E+00
        1.7193E-03        0.0000E+00        5.1570E+00        0.0000E+00
        1.7217E-03        0.0000E+00        5.4400E+00        0.0000E+00
        1.7230E-03        0.0000E+00        6.5760E+00        0.0000E+00
        1.7242E-03        0.0000E+00        5.8850E+00        0.0000E+00
        1.7254E-03        0.0000E+00        7.6250E+00        0.0000E+00
        1.7267E-03        0.0000E+00        7.0570E+00        0.0000E+00
        1.7279E-03        0.0000E+00        6.6620E+00        0.0000E+00
        1.7292E-03        0.0000E+00        7.4400E+00        0.0000E+00
        1.7304E-03        0.0000E+00        5.4160E+00        0.0000E+00
        1.7329E-03        0.0000E+00        4.0950E+00        0.0000E+00
        1.7353E-03        0.0000E+00        7.2300E+00        0.0000E+00
        1.7366E-03        0.0000E+00        6.0820E+00        0.0000E+00
        1.7378E-03        0.0000E+00        7.0570E+00        0.0000E+00
        1.7390E-03        0.0000E+00        7.8720E+00        0.0000E+00
        1.7403E-03        0.0000E+00        8.7230E+00        0.0000E+00
        1.7415E-03        0.0000E+00        9.0940E+00        0.0000E+00
        1.7427E-03        0.0000E+00        8.1190E+00        0.0000E+00
        1.7452E-03        0.0000E+00        7.9090E+00        0.0000E+00
        1.7465E-03        0.0000E+00        7.1810E+00        0.0000E+00
        1.7477E-03        0.0000E+00        6.8720E+00        0.0000E+00
        1.7514E-03        0.0000E+00        6.7860E+00        0.0000E+00
        1.7526E-03        0.0000E+00        7.0450E+00        0.0000E+00
        1.7551E-03        0.0000E+00        6.9710E+00        0.0000E+00
        1.7563E-03        0.0000E+00        7.1560E+00        0.0000E+00
        1.7576E-03        0.0000E+00        7.0940E+00        0.0000E+00
        1.7588E-03        0.0000E+00        7.5260E+00        0.0000E+00
        1.7613E-03        0.0000E+00        6.4650E+00        0.0000E+00
        1.7638E-03        0.0000E+00        5.8850E+00        0.0000E+00
        1.7650E-03        0.0000E+00        5.5140E+00        0.0000E+00
        1.7662E-03        0.0000E+00        5.7860E+00        0.0000E+00
        1.7687E-03        0.0000E+00        5.3660E+00        0.0000E+00
        1.7699E-03        0.0000E+00        5.5270E+00        0.0000E+00
        1.7736E-03        0.0000E+00        5.3290E+00        0.0000E+00
        1.7749E-03        0.0000E+00        5.1440E+00        0.0000E+00
        1.7761E-03        0.0000E+00        5.6630E+00        0.0000E+00
        1.7798E-03        0.0000E+00        6.0330E+00        0.0000E+00
        1.7823E-03        0.0000E+00        8.5010E+00        0.0000E+00
        1.7835E-03        0.0000E+00        7.6990E+00        0.0000E+00
        1.7860E-03        0.0000E+00        7.9580E+00        0.0000E+00
        1.7885E-03        0.0000E+00        8.1310E+00        0.0000E+00
        1.7897E-03        0.0000E+00        7.1810E+00        0.0000E+00
        1.7909E-03        0.0000E+00        6.2180E+00        0.0000E+00
        1.7922E-03        0.0000E+00        5.4400E+00        0.0000E+00
        1.7946E-03        0.0000E+00        5.9090E+00        0.0000E+00
        1.7959E-03        0.0000E+00        5.6750E+00        0.0000E+00
        1.7971E-03        0.0000E+00        5.8350E+00        0.0000E+00
        1.7983E-03        0.0000E+00        6.0700E+00        0.0000E+00
        1.8008E-03        0.0000E+00        6.8470E+00        0.0000E+00
        1.8021E-03        0.0000E+00        6.6250E+00        0.0000E+00
        1.8033E-03        0.0000E+00        6.3410E+00        0.0000E+00
        1.8045E-03        0.0000E+00        7.1310E+00        0.0000E+00
        1.8070E-03        0.0000E+00        7.3160E+00        0.0000E+00
        1.8082E-03        0.0000E+00        7.7850E+00        0.0000E+00
        1.8095E-03        0.0000E+00        6.5760E+00        0.0000E+00
        1.8107E-03        0.0000E+00        8.5880E+00        0.0000E+00
        1.8119E-03        0.0000E+00        9.3900E+00        0.0000E+00
        1.8144E-03        0.0000E+00        9.5630E+00        0.0000E+00
        1.8156E-03        0.0000E+00        8.0820E+00        0.0000E+00
        1.8169E-03        0.0000E+00        6.9090E+00        0.0000E+00
        1.8181E-03        0.0000E+00        7.3780E+00        0.0000E+00
        1.8194E-03        0.0000E+00        6.7360E+00        0.0000E+00
        1.8206E-03        0.0000E+00        7.1560E+00        0.0000E+00
        1.8218E-03        0.0000E+00        6.9960E+00        0.0000E+00
        1.8243E-03        0.0000E+00        6.6010E+00        0.0000E+00
        1.8255E-03        0.0000E+00        5.8600E+00        0.0000E+00
        1.8268E-03        0.0000E+00        5.3540E+00        0.0000E+00
        1.8280E-03        0.0000E+00        5.6010E+00        0.0000E+00
        1.8292E-03        0.0000E+00        5.4030E+00        0.0000E+00
        1.8305E-03        0.0000E+00        5.2680E+00        0.0000E+00
        1.8329E-03        0.0000E+00        5.9590E+00        0.0000E+00
        1.8354E-03        0.0000E+00        6.3410E+00        0.0000E+00
        1.8367E-03        0.0000E+00        5.5760E+00        0.0000E+00
        1.8379E-03        0.0000E+00        6.0580E+00        0.0000E+00
        1.8416E-03        0.0000E+00        5.5390E+00        0.0000E+00
        1.8441E-03        0.0000E+00        6.3290E+00        0.0000E+00
        1.8453E-03        0.0000E+00        6.3910E+00        0.0000E+00
        1.8465E-03        0.0000E+00        6.8230E+00        0.0000E+00
        1.8478E-03        0.0000E+00        6.7610E+00        0.0000E+00
        1.8502E-03        0.0000E+00        6.9090E+00        0.0000E+00
        1.8527E-03        0.0000E+00        5.3170E+00        0.0000E+00
        1.8540E-03        0.0000E+00        5.4900E+00        0.0000E+00
        1.8552E-03        0.0000E+00        4.3670E+00        0.0000E+00
        1.8564E-03        0.0000E+00        4.9960E+00        0.0000E+00
        1.8589E-03        0.0000E+00        4.8480E+00        0.0000E+00
        1.8601E-03        0.0000E+00        5.6260E+00        0.0000E+00
        1.8626E-03        0.0000E+00        5.3170E+00        0.0000E+00
        1.8638E-03        0.0000E+00        5.7860E+00        0.0000E+00
        1.8663E-03        0.0000E+00        5.9710E+00        0.0000E+00
        1.8700E-03        0.0000E+00        5.6380E+00        0.0000E+00
        1.8713E-03        0.0000E+00        5.7370E+00        0.0000E+00
        1.8725E-03        0.0000E+00        5.8480E+00        0.0000E+00
        1.8750E-03        0.0000E+00        7.3660E+00        0.0000E+00
        1.8799E-03        0.0000E+00        9.2540E+00        0.0000E+00
        1.8824E-03        0.0000E+00        7.6990E+00        0.0000E+00
        1.8836E-03        0.0000E+00        7.9580E+00        0.0000E+00
        1.8848E-03        0.0000E+00        7.1070E+00        0.0000E+00
        1.8861E-03        0.0000E+00        5.8600E+00        0.0000E+00
        1.8873E-03        0.0000E+00        5.7860E+00        0.0000E+00
        1.8886E-03        0.0000E+00        6.2800E+00        0.0000E+00
        1.8910E-03        0.0000E+00        6.0450E+00        0.0000E+00
        1.8923E-03        0.0000E+00        6.9830E+00        0.0000E+00
        1.8960E-03        0.0000E+00        7.2920E+00        0.0000E+00
        1.8972E-03        0.0000E+00        7.6620E+00        0.0000E+00
        1.8984E-03        0.0000E+00        8.5630E+00        0.0000E+00
        1.9009E-03        0.0000E+00        8.6740E+00        0.0000E+00
        1.9021E-03        0.0000E+00        9.2170E+00        0.0000E+00
        1.9034E-03        0.0000E+00        8.2050E+00        0.0000E+00
        1.9046E-03        0.0000E+00        6.9960E+00        0.0000E+00
        1.9096E-03        0.0000E+00        6.2300E+00        0.0000E+00
        1.9108E-03        0.0000E+00        5.3660E+00        0.0000E+00
        1.9145E-03        0.0000E+00        6.3910E+00        0.0000E+00
        1.9170E-03        0.0000E+00        7.0700E+00        0.0000E+00
        1.9182E-03        0.0000E+00        6.1810E+00        0.0000E+00
        1.9194E-03        0.0000E+00        6.6620E+00        0.0000E+00
        1.9207E-03        0.0000E+00        6.9830E+00        0.0000E+00
        1.9244E-03        0.0000E+00        7.9330E+00        0.0000E+00
        1.9256E-03        0.0000E+00        8.3530E+00        0.0000E+00
        1.9293E-03        0.0000E+00        9.0810E+00        0.0000E+00
        1.9306E-03        0.0000E+00        9.1800E+00        0.0000E+00
        1.9318E-03        0.0000E+00        8.1430E+00        0.0000E+00
        1.9330E-03        0.0000E+00        7.9830E+00        0.0000E+00
        1.9343E-03        0.0000E+00        7.4270E+00        0.0000E+00
        1.9355E-03        0.0000E+00        7.6500E+00        0.0000E+00
        1.9367E-03        0.0000E+00        8.0940E+00        0.0000E+00
        1.9380E-03        0.0000E+00        7.8220E+00        0.0000E+00
        1.9392E-03        0.0000E+00        8.4770E+00        0.0000E+00
        1.9429E-03        0.0000E+00        6.5640E+00        0.0000E+00
        1.9442E-03        0.0000E+00        6.4770E+00        0.0000E+00
        1.9479E-03        0.0000E+00        6.5390E+00        0.0000E+00
        1.9491E-03        0.0000E+00        5.9090E+00        0.0000E+00
        1.9503E-03        0.0000E+00        6.3780E+00        0.0000E+00
        1.9528E-03        0.0000E+00        6.6620E+00        0.0000E+00
        1.9540E-03        0.0000E+00        6.4400E+00        0.0000E+00
        1.9578E-03        0.0000E+00        6.9340E+00        0.0000E+00
        1.9615E-03        0.0000E+00        7.0820E+00        0.0000E+00
        1.9627E-03        0.0000E+00        6.6250E+00        0.0000E+00
        1.9639E-03        0.0000E+00        6.1190E+00        0.0000E+00
        1.9652E-03        0.0000E+00        6.8720E+00        0.0000E+00
        1.9664E-03        0.0000E+00        6.2670E+00        0.0000E+00
        1.9689E-03        0.0000E+00        5.6630E+00        0.0000E+00
        1.9701E-03        0.0000E+00        5.2060E+00        0.0000E+00
        1.9726E-03        0.0000E+00        4.8970E+00        0.0000E+00
        1.9738E-03        0.0000E+00        4.0830E+00        0.0000E+00
        1.9788E-03        0.0000E+00        4.1320E+00        0.0000E+00
        1.9800E-03        0.0000E+00        3.4530E+00        0.0000E+00
        1.9837E-03        0.0000E+00        3.2680E+00        0.0000E+00
        1.9874E-03        0.0000E+00        3.6260E+00        0.0000E+00
        1.9886E-03        0.0000E+00        4.2430E+00        0.0000E+00
        1.9899E-03        0.0000E+00        3.7990E+00        0.0000E+00
        1.9911E-03        0.0000E+00        3.1450E+00        0.0000E+00
        1.9948E-03        0.0000E+00        3.5030E+00        0.0000E+00
        1.9973E-03        0.0000E+00        4.2430E+00        0.0000E+00
        1.9985E-03        0.0000E+00        4.0580E+00        0.0000E+00
        2.0022E-03        0.0000E+00        4.6140E+00        0.0000E+00
        2.0035E-03        0.0000E+00        5.9960E+00        0.0000E+00
        2.0059E-03        0.0000E+00        6.1320E+00        0.0000E+00
        2.0072E-03        0.0000E+00        6.2550E+00        0.0000E+00
        2.0084E-03        0.0000E+00        7.3660E+00        0.0000E+00
        2.0097E-03        0.0000E+00        7.5630E+00        0.0000E+00
        2.0109E-03        0.0000E+00        7.0080E+00        0.0000E+00
        2.0134E-03        0.0000E+00        7.8470E+00        0.0000E+00
        2.0158E-03        0.0000E+00        6.7360E+00        0.0000E+00
        2.0183E-03        0.0000E+00        5.1320E+00        0.0000E+00
        2.0208E-03        0.0000E+00        5.2060E+00        0.0000E+00
        2.0232E-03        0.0000E+00        5.6380E+00        0.0000E+00
        2.0245E-03        0.0000E+00        4.8970E+00        0.0000E+00
        2.0257E-03        0.0000E+00        5.8230E+00        0.0000E+00
        2.0270E-03        0.0000E+00        5.6010E+00        0.0000E+00
        2.0282E-03        0.0000E+00        6.0330E+00        0.0000E+00
        2.0319E-03        0.0000E+00        5.6630E+00        0.0000E+00
        2.0331E-03        0.0000E+00        5.5640E+00        0.0000E+00
        2.0356E-03        0.0000E+00        4.5020E+00        0.0000E+00
        2.0368E-03        0.0000E+00        4.9590E+00        0.0000E+00
        2.0393E-03        0.0000E+00        5.9710E+00        0.0000E+00
        2.0405E-03        0.0000E+00        6.4650E+00        0.0000E+00
        2.0430E-03        0.0000E+00        6.8840E+00        0.0000E+00
        2.0455E-03        0.0000E+00        7.0330E+00        0.0000E+00
        2.0480E-03        0.0000E+00        6.9090E+00        0.0000E+00
        2.0492E-03        0.0000E+00        7.1680E+00        0.0000E+00
        2.0529E-03        0.0000E+00        6.8600E+00        0.0000E+00
        2.0541E-03        0.0000E+00        5.5640E+00        0.0000E+00
        2.0554E-03        0.0000E+00        4.8110E+00        0.0000E+00
        2.0591E-03        0.0000E+00        4.4160E+00        0.0000E+00
        2.0603E-03        0.0000E+00        4.0700E+00        0.0000E+00
        2.0616E-03        0.0000E+00        4.1450E+00        0.0000E+00
        2.0665E-03        0.0000E+00        4.4160E+00        0.0000E+00
        2.0677E-03        0.0000E+00        3.9960E+00        0.0000E+00
        2.0702E-03        0.0000E+00        3.7500E+00        0.0000E+00
        2.0714E-03        0.0000E+00        3.9960E+00        0.0000E+00
        2.0739E-03        0.0000E+00        4.1820E+00        0.0000E+00
        2.0764E-03        0.0000E+00        5.2550E+00        0.0000E+00
        2.0788E-03        0.0000E+00        4.5640E+00        0.0000E+00
        2.0801E-03        0.0000E+00        5.3910E+00        0.0000E+00
        2.0813E-03        0.0000E+00        5.3170E+00        0.0000E+00
        2.0838E-03        0.0000E+00        5.6260E+00        0.0000E+00
        2.0850E-03        0.0000E+00        5.8850E+00        0.0000E+00
        2.0863E-03        0.0000E+00        6.5640E+00        0.0000E+00
        2.0875E-03        0.0000E+00        6.4890E+00        0.0000E+00
        2.0912E-03        0.0000E+00        6.5760E+00        0.0000E+00
        2.0924E-03        0.0000E+00        7.2050E+00        0.0000E+00
        2.0949E-03        0.0000E+00        6.3660E+00        0.0000E+00
        2.0974E-03        0.0000E+00        6.2300E+00        0.0000E+00
        2.0986E-03        0.0000E+00        7.0570E+00        0.0000E+00
        2.1011E-03        0.0000E+00        6.7730E+00        0.0000E+00
        2.1036E-03        0.0000E+00        7.1070E+00        0.0000E+00
        2.1048E-03        0.0000E+00        7.4150E+00        0.0000E+00
        2.1060E-03        0.0000E+00        6.3040E+00        0.0000E+00
        2.1073E-03        0.0000E+00        6.4520E+00        0.0000E+00
        2.1085E-03        0.0000E+00        6.2430E+00        0.0000E+00
        2.1110E-03        0.0000E+00        5.5020E+00        0.0000E+00
        2.1134E-03        0.0000E+00        4.6260E+00        0.0000E+00
        2.1147E-03        0.0000E+00        4.6750E+00        0.0000E+00
        2.1172E-03        0.0000E+00        4.9590E+00        0.0000E+00
        2.1184E-03        0.0000E+00        5.0330E+00        0.0000E+00
        2.1196E-03        0.0000E+00        5.6500E+00        0.0000E+00
        2.1209E-03        0.0000E+00        5.2060E+00        0.0000E+00
        2.1233E-03        0.0000E+00        4.1570E+00        0.0000E+00
        2.1270E-03        0.0000E+00        4.5270E+00        0.0000E+00
        2.1283E-03        0.0000E+00        4.2060E+00        0.0000E+00
        2.1295E-03        0.0000E+00        4.0700E+00        0.0000E+00
        2.1307E-03        0.0000E+00        4.4530E+00        0.0000E+00
        2.1332E-03        0.0000E+00        5.7240E+00        0.0000E+00
        2.1357E-03        0.0000E+00        6.4520E+00        0.0000E+00
        2.1369E-03        0.0000E+00        6.6380E+00        0.0000E+00
        2.1394E-03        0.0000E+00        7.4890E+00        0.0000E+00
        2.1406E-03        0.0000E+00        6.7610E+00        0.0000E+00
        2.1431E-03        0.0000E+00        6.2430E+00        0.0000E+00
        2.1431E-03        0.0000E+00        6.0080E+00        0.0000E+00
        2.1443E-03        0.0000E+00        5.6260E+00        0.0000E+00
        2.1468E-03        0.0000E+00        6.0580E+00        0.0000E+00
        2.1518E-03        0.0000E+00        4.7990E+00        0.0000E+00
        2.1542E-03        0.0000E+00        5.2310E+00        0.0000E+00
        2.1555E-03        0.0000E+00        4.9710E+00        0.0000E+00
        2.1579E-03        0.0000E+00        5.3170E+00        0.0000E+00
        2.1592E-03        0.0000E+00        5.5270E+00        0.0000E+00
        2.1604E-03        0.0000E+00        5.8600E+00        0.0000E+00
        2.1616E-03        0.0000E+00        5.9220E+00        0.0000E+00
        2.1629E-03        0.0000E+00        5.4770E+00        0.0000E+00
        2.1641E-03        0.0000E+00        6.0820E+00        0.0000E+00
        2.1653E-03        0.0000E+00        6.2920E+00        0.0000E+00
        2.1666E-03        0.0000E+00        6.5140E+00        0.0000E+00
        2.1703E-03        0.0000E+00        7.1680E+00        0.0000E+00
        2.1715E-03        0.0000E+00        7.6620E+00        0.0000E+00
        2.1728E-03        0.0000E+00        8.1800E+00        0.0000E+00
        2.1740E-03        0.0000E+00        8.0080E+00        0.0000E+00
        2.1752E-03        0.0000E+00        6.6500E+00        0.0000E+00
        2.1789E-03        0.0000E+00        6.4400E+00        0.0000E+00
        2.1814E-03        0.0000E+00        6.5640E+00        0.0000E+00
        2.1826E-03        0.0000E+00        5.9090E+00        0.0000E+00
        2.1851E-03        0.0000E+00        5.8350E+00        0.0000E+00
        2.1864E-03        0.0000E+00        4.8970E+00        0.0000E+00
        2.1901E-03        0.0000E+00        4.9960E+00        0.0000E+00
        2.1925E-03        0.0000E+00        4.2800E+00        0.0000E+00
        2.1950E-03        0.0000E+00        5.3660E+00        0.0000E+00
        2.1962E-03        0.0000E+00        5.1570E+00        0.0000E+00
        2.1987E-03        0.0000E+00        5.6500E+00        0.0000E+00
        2.2037E-03        0.0000E+00        5.2430E+00        0.0000E+00
        2.2049E-03        0.0000E+00        6.3170E+00        0.0000E+00
        2.2061E-03        0.0000E+00        5.5510E+00        0.0000E+00
        2.2074E-03        0.0000E+00        6.2430E+00        0.0000E+00
        2.2086E-03        0.0000E+00        6.5270E+00        0.0000E+00
        2.2098E-03        0.0000E+00        6.7610E+00        0.0000E+00
        2.2123E-03        0.0000E+00        6.8470E+00        0.0000E+00
        2.2135E-03        0.0000E+00        6.7360E+00        0.0000E+00
        2.2148E-03        0.0000E+00        5.8720E+00        0.0000E+00
        2.2197E-03        0.0000E+00        5.3050E+00        0.0000E+00
        2.2210E-03        0.0000E+00        5.6750E+00        0.0000E+00
        2.2247E-03        0.0000E+00        5.2430E+00        0.0000E+00
        2.2271E-03        0.0000E+00        4.7740E+00        0.0000E+00
        2.2284E-03        0.0000E+00        5.0580E+00        0.0000E+00
        2.2308E-03        0.0000E+00        5.5640E+00        0.0000E+00
        2.2333E-03        0.0000E+00        6.4280E+00        0.0000E+00
        2.2345E-03        0.0000E+00        6.8350E+00        0.0000E+00
        2.2358E-03        0.0000E+00        7.0450E+00        0.0000E+00
        2.2383E-03        0.0000E+00        7.1310E+00        0.0000E+00
        2.2395E-03        0.0000E+00        6.8230E+00        0.0000E+00
        2.2407E-03        0.0000E+00        7.2920E+00        0.0000E+00
        2.2432E-03        0.0000E+00        6.2180E+00        0.0000E+00
        2.2444E-03        0.0000E+00        5.7860E+00        0.0000E+00
        2.2469E-03        0.0000E+00        4.8600E+00        0.0000E+00
        2.2506E-03        0.0000E+00        4.7860E+00        0.0000E+00
        2.2543E-03        0.0000E+00        5.0210E+00        0.0000E+00
        2.2568E-03        0.0000E+00        5.3790E+00        0.0000E+00
        2.2580E-03        0.0000E+00        5.4900E+00        0.0000E+00
        2.2593E-03        0.0000E+00        5.6130E+00        0.0000E+00
        2.2617E-03        0.0000E+00        5.1570E+00        0.0000E+00
        2.2617E-03        0.0000E+00        5.2180E+00        0.0000E+00
        2.2642E-03        0.0000E+00        5.3790E+00        0.0000E+00
        2.2667E-03        0.0000E+00        5.4280E+00        0.0000E+00
        2.2667E-03        0.0000E+00        5.9340E+00        0.0000E+00
        2.2704E-03        0.0000E+00        5.9340E+00        0.0000E+00
        2.2716E-03        0.0000E+00        5.6010E+00        0.0000E+00
        2.2753E-03        0.0000E+00        5.1810E+00        0.0000E+00
        2.2766E-03        0.0000E+00        4.5390E+00        0.0000E+00
        2.2778E-03        0.0000E+00        3.5030E+00        0.0000E+00
        2.2803E-03        0.0000E+00        4.0700E+00        0.0000E+00
        2.2827E-03        0.0000E+00        4.8600E+00        0.0000E+00
        2.2852E-03        0.0000E+00        5.5270E+00        0.0000E+00
        2.2877E-03        0.0000E+00        6.2300E+00        0.0000E+00
        2.2889E-03        0.0000E+00        6.4150E+00        0.0000E+00
        2.2914E-03        0.0000E+00        6.6870E+00        0.0000E+00
        2.2939E-03        0.0000E+00        6.9340E+00        0.0000E+00
        2.2963E-03        0.0000E+00        6.7240E+00        0.0000E+00
        2.2988E-03        0.0000E+00        7.1310E+00        0.0000E+00
        2.3025E-03        0.0000E+00        7.8220E+00        0.0000E+00
        2.3037E-03        0.0000E+00        7.5760E+00        0.0000E+00
        2.3062E-03        0.0000E+00        7.7610E+00        0.0000E+00
        2.3099E-03        0.0000E+00        7.3530E+00        0.0000E+00
        2.3136E-03        0.0000E+00        7.1930E+00        0.0000E+00
        2.3149E-03        0.0000E+00        6.8100E+00        0.0000E+00
        2.3198E-03        0.0000E+00        6.4400E+00        0.0000E+00
        2.3223E-03        0.0000E+00        4.6140E+00        0.0000E+00
        2.3247E-03        0.0000E+00        3.5030E+00        0.0000E+00
        2.3272E-03        0.0000E+00        4.0330E+00        0.0000E+00
        2.3297E-03        0.0000E+00        3.6390E+00        0.0000E+00
        2.3309E-03        0.0000E+00        3.4900E+00        0.0000E+00
        2.3322E-03        0.0000E+00        3.2810E+00        0.0000E+00
        2.3371E-03        0.0000E+00        3.8240E+00        0.0000E+00
        2.3396E-03        0.0000E+00        3.9350E+00        0.0000E+00
        2.3408E-03        0.0000E+00        3.5400E+00        0.0000E+00
        2.3433E-03        0.0000E+00        3.4290E+00        0.0000E+00
        2.3458E-03        0.0000E+00        3.5640E+00        0.0000E+00
        2.3495E-03        0.0000E+00        3.8360E+00        0.0000E+00
        2.3507E-03        0.0000E+00        3.9350E+00        0.0000E+00
        2.3519E-03        0.0000E+00        4.2060E+00        0.0000E+00
        2.3532E-03        0.0000E+00        4.1070E+00        0.0000E+00
        2.3569E-03        0.0000E+00        4.9470E+00        0.0000E+00
        2.3606E-03        0.0000E+00        5.9460E+00        0.0000E+00
        2.3618E-03        0.0000E+00        6.4030E+00        0.0000E+00
        2.3643E-03        0.0000E+00        3.3050E+00        0.0000E+00
        2.3680E-03        0.0000E+00        5.8600E+00        0.0000E+00
        2.3705E-03        0.0000E+00        6.0950E+00        0.0000E+00
        2.3717E-03        0.0000E+00        5.9830E+00        0.0000E+00
        2.3729E-03        0.0000E+00        5.7120E+00        0.0000E+00
        2.3754E-03        0.0000E+00        5.6380E+00        0.0000E+00
        2.3791E-03        0.0000E+00        5.5760E+00        0.0000E+00
        2.3816E-03        0.0000E+00        5.8600E+00        0.0000E+00
        2.3841E-03        0.0000E+00        6.8350E+00        0.0000E+00
        2.3853E-03        0.0000E+00        6.3410E+00        0.0000E+00
        2.3902E-03        0.0000E+00        6.2920E+00        0.0000E+00
        2.3915E-03        0.0000E+00        6.4770E+00        0.0000E+00
        2.3939E-03        0.0000E+00        6.6990E+00        0.0000E+00
        2.3964E-03        0.0000E+00        6.4280E+00        0.0000E+00
        2.3977E-03        0.0000E+00        7.0200E+00        0.0000E+00
        2.4001E-03        0.0000E+00        7.4030E+00        0.0000E+00
        2.4014E-03        0.0000E+00        7.7110E+00        0.0000E+00
        2.4026E-03        0.0000E+00        7.5510E+00        0.0000E+00
        2.4063E-03        0.0000E+00        7.7850E+00        0.0000E+00
        2.4088E-03        0.0000E+00        7.9580E+00        0.0000E+00
        2.4100E-03        0.0000E+00        7.0080E+00        0.0000E+00
        2.4137E-03        0.0000E+00        6.7980E+00        0.0000E+00
        2.4150E-03        0.0000E+00        5.8230E+00        0.0000E+00
        2.4162E-03        0.0000E+00        4.5150E+00        0.0000E+00
        2.4174E-03        0.0000E+00        4.2560E+00        0.0000E+00
        2.4211E-03        0.0000E+00        4.5520E+00        0.0000E+00
        2.4236E-03        0.0000E+00        5.1200E+00        0.0000E+00
        2.4248E-03        0.0000E+00        5.4530E+00        0.0000E+00
        2.4285E-03        0.0000E+00        6.0200E+00        0.0000E+00
        2.4323E-03        0.0000E+00        6.2300E+00        0.0000E+00
        2.4335E-03        0.0000E+00        6.6990E+00        0.0000E+00
        2.4360E-03        0.0000E+00        6.7980E+00        0.0000E+00
        2.4384E-03        0.0000E+00        7.0570E+00        0.0000E+00
        2.4421E-03        0.0000E+00        6.6380E+00        0.0000E+00
        2.4434E-03        0.0000E+00        6.1930E+00        0.0000E+00
        2.4458E-03        0.0000E+00        5.1810E+00        0.0000E+00
        2.4483E-03        0.0000E+00        5.3420E+00        0.0000E+00
        2.4496E-03        0.0000E+00        5.2800E+00        0.0000E+00
        2.4520E-03        0.0000E+00        6.0330E+00        0.0000E+00
        2.4533E-03        0.0000E+00        5.3910E+00        0.0000E+00
        2.4557E-03        0.0000E+00        5.8850E+00        0.0000E+00
        2.4582E-03        0.0000E+00        5.5270E+00        0.0000E+00
        2.4607E-03        0.0000E+00        4.8970E+00        0.0000E+00
        2.4631E-03        0.0000E+00        5.3050E+00        0.0000E+00
        2.4669E-03        0.0000E+00        5.4770E+00        0.0000E+00
        2.4681E-03        0.0000E+00        5.7000E+00        0.0000E+00
        2.4693E-03        0.0000E+00        5.9090E+00        0.0000E+00
        2.4718E-03        0.0000E+00        5.5510E+00        0.0000E+00
        2.4743E-03        0.0000E+00        5.3420E+00        0.0000E+00
        2.4755E-03        0.0000E+00        4.7490E+00        0.0000E+00
        2.4792E-03        0.0000E+00        4.7860E+00        0.0000E+00
        2.4804E-03        0.0000E+00        4.6010E+00        0.0000E+00
        2.4817E-03        0.0000E+00        4.8360E+00        0.0000E+00
        2.4829E-03        0.0000E+00        5.4770E+00        0.0000E+00
        2.4854E-03        0.0000E+00        5.5510E+00        0.0000E+00
        2.4879E-03        0.0000E+00        6.3410E+00        0.0000E+00
        2.4891E-03        0.0000E+00        7.2180E+00        0.0000E+00
        2.4903E-03        0.0000E+00        6.6250E+00        0.0000E+00
        2.4940E-03        0.0000E+00        6.8840E+00        0.0000E+00
        2.4977E-03        0.0000E+00        7.1310E+00        0.0000E+00
        2.4990E-03        0.0000E+00        7.3900E+00        0.0000E+00
        2.5015E-03        0.0000E+00        6.5390E+00        0.0000E+00
        2.5027E-03        0.0000E+00        7.3530E+00        0.0000E+00
        2.5039E-03        0.0000E+00        6.0080E+00        0.0000E+00
        2.5064E-03        0.0000E+00        6.4520E+00        0.0000E+00
        2.5089E-03        0.0000E+00        5.5640E+00        0.0000E+00
        2.5113E-03        0.0000E+00        6.0450E+00        0.0000E+00
        2.5138E-03        0.0000E+00        6.7610E+00        0.0000E+00
        2.5150E-03        0.0000E+00        7.9330E+00        0.0000E+00
        2.5188E-03        0.0000E+00        8.8470E+00        0.0000E+00
        2.5225E-03        0.0000E+00        8.3650E+00        0.0000E+00
        2.5237E-03        0.0000E+00        7.7110E+00        0.0000E+00
        2.5249E-03        0.0000E+00        8.4400E+00        0.0000E+00
        2.5274E-03        0.0000E+00        6.6620E+00        0.0000E+00
        2.5299E-03        0.0000E+00        5.6130E+00        0.0000E+00
        2.5311E-03        0.0000E+00        6.0580E+00        0.0000E+00
        2.5348E-03        0.0000E+00        5.8970E+00        0.0000E+00
        2.5385E-03        0.0000E+00        5.4400E+00        0.0000E+00
        2.5410E-03        0.0000E+00        5.6010E+00        0.0000E+00
        2.5422E-03        0.0000E+00        4.5890E+00        0.0000E+00
        2.5447E-03        0.0000E+00        4.3670E+00        0.0000E+00
        2.5472E-03        0.0000E+00        4.1070E+00        0.0000E+00
        2.5496E-03        0.0000E+00        4.6010E+00        0.0000E+00
        2.5521E-03        0.0000E+00        4.8110E+00        0.0000E+00
        2.5546E-03        0.0000E+00        5.1200E+00        0.0000E+00
        2.5571E-03        0.0000E+00        6.3540E+00        0.0000E+00
        2.5595E-03        0.0000E+00        5.5140E+00        0.0000E+00
        2.5608E-03        0.0000E+00        6.8720E+00        0.0000E+00
        2.5645E-03        0.0000E+00        7.4030E+00        0.0000E+00
        2.5657E-03        0.0000E+00        6.3290E+00        0.0000E+00
        2.5682E-03        0.0000E+00        6.2430E+00        0.0000E+00
        2.5694E-03        0.0000E+00        6.1690E+00        0.0000E+00
        2.5719E-03        0.0000E+00        6.0200E+00        0.0000E+00
        2.5731E-03        0.0000E+00        5.7120E+00        0.0000E+00
        2.5744E-03        0.0000E+00        5.2310E+00        0.0000E+00
        2.5768E-03        0.0000E+00        5.4770E+00        0.0000E+00
        2.5781E-03        0.0000E+00        5.6260E+00        0.0000E+00
        2.5805E-03        0.0000E+00        5.1810E+00        0.0000E+00
        2.5818E-03        0.0000E+00        5.0830E+00        0.0000E+00
        2.5830E-03        0.0000E+00        4.8480E+00        0.0000E+00
        2.5855E-03        0.0000E+00        5.1320E+00        0.0000E+00
        2.5879E-03        0.0000E+00        5.1690E+00        0.0000E+00
        2.5892E-03        0.0000E+00        5.2310E+00        0.0000E+00
        2.5904E-03        0.0000E+00        5.3910E+00        0.0000E+00
        2.5929E-03        0.0000E+00        5.1440E+00        0.0000E+00
        2.5954E-03        0.0000E+00        4.6510E+00        0.0000E+00
        2.5978E-03        0.0000E+00        4.4900E+00        0.0000E+00
        2.5991E-03        0.0000E+00        3.9840E+00        0.0000E+00
        2.6015E-03        0.0000E+00        4.0330E+00        0.0000E+00
        2.6028E-03        0.0000E+00        3.8980E+00        0.0000E+00
        2.6052E-03        0.0000E+00        3.7000E+00        0.0000E+00
        2.6065E-03        0.0000E+00        3.8240E+00        0.0000E+00
        2.6077E-03        0.0000E+00        3.9470E+00        0.0000E+00
        2.6090E-03        0.0000E+00        3.8850E+00        0.0000E+00
        2.6114E-03        0.0000E+00        4.0830E+00        0.0000E+00
        2.6139E-03        0.0000E+00        4.6380E+00        0.0000E+00
        2.6164E-03        0.0000E+00        5.8230E+00        0.0000E+00
        2.6176E-03        0.0000E+00        5.4280E+00        0.0000E+00
        2.6213E-03        0.0000E+00        5.2430E+00        0.0000E+00
        2.6238E-03        0.0000E+00        5.1810E+00        0.0000E+00
        2.6263E-03        0.0000E+00        4.7740E+00        0.0000E+00
        2.6275E-03        0.0000E+00        4.4780E+00        0.0000E+00
        2.6300E-03        0.0000E+00        3.6260E+00        0.0000E+00
        2.6312E-03        0.0000E+00        3.9220E+00        0.0000E+00
        2.6349E-03        0.0000E+00        4.0460E+00        0.0000E+00
        2.6374E-03        0.0000E+00        3.8110E+00        0.0000E+00
        2.6398E-03        0.0000E+00        3.6760E+00        0.0000E+00
        2.6411E-03        0.0000E+00        4.1070E+00        0.0000E+00
        2.6436E-03        0.0000E+00        3.4040E+00        0.0000E+00
        2.6497E-03        0.0000E+00        2.9840E+00        0.0000E+00
        2.6510E-03        0.0000E+00        3.4160E+00        0.0000E+00
        2.6559E-03        0.0000E+00        3.0950E+00        0.0000E+00
        2.6571E-03        0.0000E+00        2.9720E+00        0.0000E+00
        2.6584E-03        0.0000E+00        3.7620E+00        0.0000E+00
        2.6596E-03        0.0000E+00        3.6390E+00        0.0000E+00
        2.6621E-03        0.0000E+00        3.8980E+00        0.0000E+00
        2.6646E-03        0.0000E+00        3.8110E+00        0.0000E+00
        2.6670E-03        0.0000E+00        3.7250E+00        0.0000E+00
        2.6707E-03        0.0000E+00        4.4530E+00        0.0000E+00
        2.6720E-03        0.0000E+00        4.1690E+00        0.0000E+00
        2.6732E-03        0.0000E+00        4.3170E+00        0.0000E+00
        2.6782E-03        0.0000E+00        4.8730E+00        0.0000E+00
        2.6794E-03        0.0000E+00        5.0080E+00        0.0000E+00
        2.6819E-03        0.0000E+00        5.7490E+00        0.0000E+00
        2.6831E-03        0.0000E+00        6.6130E+00        0.0000E+00
        2.6843E-03        0.0000E+00        6.3410E+00        0.0000E+00
        2.6893E-03        0.0000E+00        6.4400E+00        0.0000E+00
        2.6905E-03        0.0000E+00        6.5880E+00        0.0000E+00
        2.6917E-03        0.0000E+00        6.2180E+00        0.0000E+00
        2.6930E-03        0.0000E+00        6.7240E+00        0.0000E+00
        2.6967E-03        0.0000E+00        6.4400E+00        0.0000E+00
        2.6979E-03        0.0000E+00        6.2060E+00        0.0000E+00
        2.6979E-03        0.0000E+00        6.5140E+00        0.0000E+00
        2.7029E-03        0.0000E+00        5.7000E+00        0.0000E+00
        2.7053E-03        0.0000E+00        6.3540E+00        0.0000E+00
        2.7066E-03        0.0000E+00        6.4520E+00        0.0000E+00
        2.7103E-03        0.0000E+00        6.8100E+00        0.0000E+00
        2.7115E-03        0.0000E+00        6.6620E+00        0.0000E+00
        2.7140E-03        0.0000E+00        6.4520E+00        0.0000E+00
        2.7152E-03        0.0000E+00        6.5270E+00        0.0000E+00
        2.7165E-03        0.0000E+00        6.5880E+00        0.0000E+00
        2.7202E-03        0.0000E+00        5.9830E+00        0.0000E+00
        2.7251E-03        0.0000E+00        4.9470E+00        0.0000E+00
        2.7263E-03        0.0000E+00        5.2800E+00        0.0000E+00
        2.7288E-03        0.0000E+00        5.1440E+00        0.0000E+00
        2.7325E-03        0.0000E+00        5.5640E+00        0.0000E+00
        2.7338E-03        0.0000E+00        5.3910E+00        0.0000E+00
        2.7350E-03        0.0000E+00        5.2060E+00        0.0000E+00
        2.7375E-03        0.0000E+00        5.2550E+00        0.0000E+00
        2.7412E-03        0.0000E+00        5.6630E+00        0.0000E+00
        2.7436E-03        0.0000E+00        5.5390E+00        0.0000E+00
        2.7449E-03        0.0000E+00        4.9220E+00        0.0000E+00
        2.7474E-03        0.0000E+00        5.1070E+00        0.0000E+00
        2.7486E-03        0.0000E+00        4.5520E+00        0.0000E+00
        2.7511E-03        0.0000E+00        4.6260E+00        0.0000E+00
        2.7548E-03        0.0000E+00        4.7120E+00        0.0000E+00
        2.7560E-03        0.0000E+00        4.9340E+00        0.0000E+00
        2.7597E-03        0.0000E+00        5.1200E+00        0.0000E+00
        2.7634E-03        0.0000E+00        5.0580E+00        0.0000E+00
        2.7647E-03        0.0000E+00        4.5270E+00        0.0000E+00
        2.7671E-03        0.0000E+00        4.2430E+00        0.0000E+00
        2.7708E-03        0.0000E+00        4.0460E+00        0.0000E+00
        2.7721E-03        0.0000E+00        3.7370E+00        0.0000E+00
        2.7745E-03        0.0000E+00        4.1450E+00        0.0000E+00
        2.7770E-03        0.0000E+00        4.6010E+00        0.0000E+00
        2.7795E-03        0.0000E+00        4.8730E+00        0.0000E+00
        2.7820E-03        0.0000E+00        4.9590E+00        0.0000E+00
        2.7869E-03        0.0000E+00        5.4030E+00        0.0000E+00
        2.7894E-03        0.0000E+00        5.2550E+00        0.0000E+00
        2.7931E-03        0.0000E+00        5.0580E+00        0.0000E+00
        2.7943E-03        0.0000E+00        5.4030E+00        0.0000E+00
        2.7955E-03        0.0000E+00        4.9470E+00        0.0000E+00
        2.8005E-03        0.0000E+00        4.8730E+00        0.0000E+00
        2.8017E-03        0.0000E+00        5.5270E+00        0.0000E+00
        2.8030E-03        0.0000E+00        4.9710E+00        0.0000E+00
        2.8079E-03        0.0000E+00        6.3410E+00        0.0000E+00
        2.8104E-03        0.0000E+00        6.6010E+00        0.0000E+00
        2.8153E-03        0.0000E+00        5.9960E+00        0.0000E+00
        2.8178E-03        0.0000E+00        5.6010E+00        0.0000E+00
        2.8203E-03        0.0000E+00        5.7980E+00        0.0000E+00
        2.8227E-03        0.0000E+00        5.9590E+00        0.0000E+00
        2.8252E-03        0.0000E+00        5.7370E+00        0.0000E+00
        2.8264E-03        0.0000E+00        4.9340E+00        0.0000E+00
        2.8277E-03        0.0000E+00        5.6500E+00        0.0000E+00
        2.8301E-03        0.0000E+00        5.3290E+00        0.0000E+00
        2.8314E-03        0.0000E+00        4.7250E+00        0.0000E+00
        2.8351E-03        0.0000E+00        4.1320E+00        0.0000E+00
        2.8363E-03        0.0000E+00        4.4410E+00        0.0000E+00
        2.8400E-03        0.0000E+00        3.9100E+00        0.0000E+00
        2.8437E-03        0.0000E+00        4.2680E+00        0.0000E+00
        2.8450E-03        0.0000E+00        4.0330E+00        0.0000E+00
        2.8499E-03        0.0000E+00        4.3300E+00        0.0000E+00
        2.8512E-03        0.0000E+00        4.8600E+00        0.0000E+00
        2.8573E-03        0.0000E+00        4.4780E+00        0.0000E+00
        2.8610E-03        0.0000E+00        4.8110E+00        0.0000E+00
        2.8647E-03        0.0000E+00        5.0580E+00        0.0000E+00
        2.8660E-03        0.0000E+00        6.1810E+00        0.0000E+00
        2.8684E-03        0.0000E+00        6.8840E+00        0.0000E+00
        2.8709E-03        0.0000E+00        7.4520E+00        0.0000E+00
        2.8746E-03        0.0000E+00        7.6990E+00        0.0000E+00
        2.8759E-03        0.0000E+00        7.3040E+00        0.0000E+00
        2.8771E-03        0.0000E+00        6.0200E+00        0.0000E+00
        2.8808E-03        0.0000E+00        5.7490E+00        0.0000E+00
        2.8820E-03        0.0000E+00        5.2060E+00        0.0000E+00
        2.8833E-03        0.0000E+00        5.0450E+00        0.0000E+00
        2.8845E-03        0.0000E+00        4.3910E+00        0.0000E+00
        2.8882E-03        0.0000E+00        3.7740E+00        0.0000E+00
        2.8932E-03        0.0000E+00        3.5400E+00        0.0000E+00
        2.8944E-03        0.0000E+00        3.9470E+00        0.0000E+00
        2.8956E-03        0.0000E+00        3.4780E+00        0.0000E+00
        2.8981E-03        0.0000E+00        4.2560E+00        0.0000E+00
        2.9006E-03        0.0000E+00        4.1450E+00        0.0000E+00
        2.9043E-03        0.0000E+00        3.9840E+00        0.0000E+00
        2.9080E-03        0.0000E+00        3.6010E+00        0.0000E+00
        2.9129E-03        0.0000E+00        3.6760E+00        0.0000E+00
        2.9142E-03        0.0000E+00        3.4530E+00        0.0000E+00
        2.9154E-03        0.0000E+00        3.9840E+00        0.0000E+00
        2.9203E-03        0.0000E+00        4.4040E+00        0.0000E+00
        2.9228E-03        0.0000E+00        4.2680E+00        0.0000E+00
        2.9241E-03        0.0000E+00        4.1200E+00        0.0000E+00
        2.9302E-03        0.0000E+00        4.3540E+00        0.0000E+00
        2.9327E-03        0.0000E+00        3.9840E+00        0.0000E+00
        2.9339E-03        0.0000E+00        4.4040E+00        0.0000E+00
        2.9389E-03        0.0000E+00        4.5020E+00        0.0000E+00
        2.9401E-03        0.0000E+00        4.0330E+00        0.0000E+00
        2.9414E-03        0.0000E+00        4.6010E+00        0.0000E+00
        2.9463E-03        0.0000E+00        4.9340E+00        0.0000E+00
        2.9488E-03        0.0000E+00        6.1810E+00        0.0000E+00
        2.9500E-03        0.0000E+00        6.2180E+00        0.0000E+00
        2.9525E-03        0.0000E+00        6.7730E+00        0.0000E+00
        2.9549E-03        0.0000E+00        6.3660E+00        0.0000E+00
        2.9562E-03        0.0000E+00        6.1190E+00        0.0000E+00
        2.9574E-03        0.0000E+00        6.0080E+00        0.0000E+00
        2.9611E-03        0.0000E+00        5.5760E+00        0.0000E+00
        2.9624E-03        0.0000E+00        4.9840E+00        0.0000E+00
        2.9636E-03        0.0000E+00        5.1320E+00        0.0000E+00
        2.9673E-03        0.0000E+00        4.9340E+00        0.0000E+00
        2.9685E-03        0.0000E+00        5.0080E+00        0.0000E+00
        2.9710E-03        0.0000E+00        5.2180E+00        0.0000E+00
        2.9722E-03        0.0000E+00        5.5890E+00        0.0000E+00
        2.9760E-03        0.0000E+00        5.6500E+00        0.0000E+00
        2.9797E-03        0.0000E+00        6.8470E+00        0.0000E+00
        2.9834E-03        0.0000E+00        6.0950E+00        0.0000E+00
        2.9846E-03        0.0000E+00        5.1440E+00        0.0000E+00
        2.9858E-03        0.0000E+00        4.7860E+00        0.0000E+00
        2.9883E-03        0.0000E+00        4.9710E+00        0.0000E+00
        2.9908E-03        0.0000E+00        4.1940E+00        0.0000E+00
        2.9920E-03        0.0000E+00        4.5390E+00        0.0000E+00
        2.9933E-03        0.0000E+00        4.6630E+00        0.0000E+00
        2.9957E-03        0.0000E+00        4.3540E+00        0.0000E+00
        3.0118E-03        0.0000E+00        5.8770E+00        0.0000E+00
        3.0169E-03        0.0000E+00        6.0370E+00        0.0000E+00
        3.0176E-03        0.0000E+00        6.7640E+00        0.0000E+00
        3.0197E-03        0.0000E+00        6.3820E+00        0.0000E+00
        3.0224E-03        0.0000E+00        6.5540E+00        0.0000E+00
        3.0247E-03        0.0000E+00        6.4430E+00        0.0000E+00
        3.0284E-03        0.0000E+00        5.1490E+00        0.0000E+00
        3.0289E-03        0.0000E+00        5.6910E+00        0.0000E+00
        3.0313E-03        0.0000E+00        5.5430E+00        0.0000E+00
        3.0332E-03        0.0000E+00        4.9880E+00        0.0000E+00
        3.0351E-03        0.0000E+00        4.4580E+00        0.0000E+00
        3.0381E-03        0.0000E+00        4.9510E+00        0.0000E+00
        3.0430E-03        0.0000E+00        4.8770E+00        0.0000E+00
        3.0456E-03        0.0000E+00        5.0620E+00        0.0000E+00
        3.0505E-03        0.0000E+00        5.0000E+00        0.0000E+00
        3.0507E-03        0.0000E+00        5.1240E+00        0.0000E+00
        3.0556E-03        0.0000E+00        5.0740E+00        0.0000E+00
        3.0594E-03        0.0000E+00        3.9770E+00        0.0000E+00
        3.0595E-03        0.0000E+00        4.0630E+00        0.0000E+00
        3.0600E-03        0.0000E+00        4.5310E+00        0.0000E+00
        3.0623E-03        0.0000E+00        4.3590E+00        0.0000E+00
        3.0650E-03        0.0000E+00        4.5680E+00        0.0000E+00
        3.0696E-03        0.0000E+00        4.2720E+00        0.0000E+00
        3.0722E-03        0.0000E+00        4.3830E+00        0.0000E+00
        3.0781E-03        0.0000E+00        5.3570E+00        0.0000E+00
        3.0784E-03        0.0000E+00        5.6530E+00        0.0000E+00
        3.0787E-03        0.0000E+00        5.9610E+00        0.0000E+00
        3.0814E-03        0.0000E+00        6.1340E+00        0.0000E+00
        3.0858E-03        0.0000E+00        5.5910E+00        0.0000E+00
        3.0887E-03        0.0000E+00        6.0470E+00        0.0000E+00
        3.0893E-03        0.0000E+00        4.1360E+00        0.0000E+00
        3.0895E-03        0.0000E+00        4.3950E+00        0.0000E+00
        3.0901E-03        0.0000E+00        4.9250E+00        0.0000E+00
        3.0972E-03        0.0000E+00        4.5920E+00        0.0000E+00
        3.0995E-03        0.0000E+00        4.5060E+00        0.0000E+00
        3.1016E-03        0.0000E+00        4.0500E+00        0.0000E+00
        3.1023E-03        0.0000E+00        4.7650E+00        0.0000E+00
        3.1086E-03        0.0000E+00        3.6550E+00        0.0000E+00
        3.1114E-03        0.0000E+00        4.0000E+00        0.0000E+00
        3.1158E-03        0.0000E+00        3.4330E+00        0.0000E+00
        3.1177E-03        0.0000E+00        2.8410E+00        0.0000E+00
        3.1180E-03        0.0000E+00        3.1000E+00        0.0000E+00
        3.1180E-03        0.0000E+00        3.1740E+00        0.0000E+00
        3.1229E-03        0.0000E+00        3.0500E+00        0.0000E+00
        3.1279E-03        0.0000E+00        3.1370E+00        0.0000E+00
        3.1283E-03        0.0000E+00        3.5930E+00        0.0000E+00
        3.1291E-03        0.0000E+00        4.3570E+00        0.0000E+00
        3.1318E-03        0.0000E+00        4.5420E+00        0.0000E+00
        3.1322E-03        0.0000E+00        4.9980E+00        0.0000E+00
        3.1401E-03        0.0000E+00        5.4420E+00        0.0000E+00
        3.1419E-03        0.0000E+00        4.7390E+00        0.0000E+00
        3.1423E-03        0.0000E+00        5.2320E+00        0.0000E+00
        3.1464E-03        0.0000E+00        4.2830E+00        0.0000E+00
        3.1482E-03        0.0000E+00        3.6170E+00        0.0000E+00
        3.1492E-03        0.0000E+00        4.6160E+00        0.0000E+00
        3.1533E-03        0.0000E+00        3.8140E+00        0.0000E+00
        3.1534E-03        0.0000E+00        3.8880E+00        0.0000E+00
        3.1606E-03        0.0000E+00        3.7150E+00        0.0000E+00
        3.1632E-03        0.0000E+00        3.8260E+00        0.0000E+00
        3.1634E-03        0.0000E+00        4.0110E+00        0.0000E+00
        3.1667E-03        0.0000E+00        4.8370E+00        0.0000E+00
        3.1668E-03        0.0000E+00        4.8990E+00        0.0000E+00
        3.1719E-03        0.0000E+00        5.0840E+00        0.0000E+00
        3.1726E-03        0.0000E+00        5.7370E+00        0.0000E+00
        3.1752E-03        0.0000E+00        5.9590E+00        0.0000E+00
        3.1796E-03        0.0000E+00        5.3300E+00        0.0000E+00
        3.1797E-03        0.0000E+00        5.4290E+00        0.0000E+00
        3.1798E-03        0.0000E+00        5.6010E+00        0.0000E+00
        3.1845E-03        0.0000E+00        5.2800E+00        0.0000E+00
        3.1920E-03        0.0000E+00        5.3910E+00        0.0000E+00
        3.1940E-03        0.0000E+00        4.9230E+00        0.0000E+00
        3.1943E-03        0.0000E+00        5.2430E+00        0.0000E+00
        3.1946E-03        0.0000E+00        5.5390E+00        0.0000E+00
        3.1997E-03        0.0000E+00        5.6250E+00        0.0000E+00
        3.2013E-03        0.0000E+00        4.7620E+00        0.0000E+00
        3.2016E-03        0.0000E+00        5.1200E+00        0.0000E+00
        3.2065E-03        0.0000E+00        5.0460E+00        0.0000E+00
        3.2092E-03        0.0000E+00        5.2180E+00        0.0000E+00
        3.2142E-03        0.0000E+00        5.3290E+00        0.0000E+00
        3.2169E-03        0.0000E+00        5.5260E+00        0.0000E+00
        3.2241E-03        0.0000E+00        5.2670E+00        0.0000E+00
        3.2273E-03        0.0000E+00        6.0810E+00        0.0000E+00
        3.2293E-03        0.0000E+00        5.6000E+00        0.0000E+00
        3.2321E-03        0.0000E+00        5.8960E+00        0.0000E+00
        3.2349E-03        0.0000E+00        6.2290E+00        0.0000E+00
        3.2376E-03        0.0000E+00        6.4260E+00        0.0000E+00
        3.2454E-03        0.0000E+00        6.7950E+00        0.0000E+00
        3.2465E-03        0.0000E+00        7.8800E+00        0.0000E+00
        3.2493E-03        0.0000E+00        8.2500E+00        0.0000E+00
        3.2516E-03        0.0000E+00        8.0770E+00        0.0000E+00
        3.2531E-03        0.0000E+00        7.0910E+00        0.0000E+00
        3.2562E-03        0.0000E+00        5.2050E+00        0.0000E+00
        3.2579E-03        0.0000E+00        6.9550E+00        0.0000E+00
        3.2595E-03        0.0000E+00        6.0680E+00        0.0000E+00
        3.2631E-03        0.0000E+00        4.7110E+00        0.0000E+00
        3.2633E-03        0.0000E+00        4.8960E+00        0.0000E+00
        3.2734E-03        0.0000E+00        5.1300E+00        0.0000E+00
        3.2757E-03        0.0000E+00        4.8710E+00        0.0000E+00
        3.2854E-03        0.0000E+00        4.6740E+00        0.0000E+00
        3.2858E-03        0.0000E+00        5.1180E+00        0.0000E+00
        3.2900E-03        0.0000E+00        4.3160E+00        0.0000E+00
        3.2925E-03        0.0000E+00        4.4390E+00        0.0000E+00
        3.2972E-03        0.0000E+00        4.1310E+00        0.0000E+00
        3.2978E-03        0.0000E+00        4.6980E+00        0.0000E+00
        3.2994E-03        0.0000E+00        3.9090E+00        0.0000E+00
        3.3064E-03        0.0000E+00        3.4770E+00        0.0000E+00
        3.3066E-03        0.0000E+00        3.6010E+00        0.0000E+00
        3.3087E-03        0.0000E+00        3.2680E+00        0.0000E+00
        3.3088E-03        0.0000E+00        3.3290E+00        0.0000E+00
        3.3159E-03        0.0000E+00        2.9840E+00        0.0000E+00
        3.3160E-03        0.0000E+00        3.1070E+00        0.0000E+00
        3.3161E-03        0.0000E+00        3.2060E+00        0.0000E+00
        3.3187E-03        0.0000E+00        3.3170E+00        0.0000E+00
        3.3235E-03        0.0000E+00        3.2060E+00        0.0000E+00
        3.3240E-03        0.0000E+00        3.6870E+00        0.0000E+00
        3.3242E-03        0.0000E+00        3.8590E+00        0.0000E+00
        3.3294E-03        0.0000E+00        4.2040E+00        0.0000E+00
        3.3327E-03        0.0000E+00        4.9810E+00        0.0000E+00
        3.3349E-03        0.0000E+00        4.6970E+00        0.0000E+00
        3.3401E-03        0.0000E+00        4.9190E+00        0.0000E+00
        3.3454E-03        0.0000E+00        5.3500E+00        0.0000E+00
        3.3455E-03        0.0000E+00        5.4370E+00        0.0000E+00
        3.3459E-03        0.0000E+00        5.8310E+00        0.0000E+00
        3.3503E-03        0.0000E+00        5.3010E+00        0.0000E+00
        3.3555E-03        0.0000E+00        5.5350E+00        0.0000E+00
        3.3582E-03        0.0000E+00        5.7690E+00        0.0000E+00
        3.3608E-03        0.0000E+00        5.9170E+00        0.0000E+00
        3.3630E-03        0.0000E+00        5.5840E+00        0.0000E+00
        3.3632E-03        0.0000E+00        5.8310E+00        0.0000E+00
        3.3674E-03        0.0000E+00        5.0540E+00        0.0000E+00
        3.3702E-03        0.0000E+00        5.3380E+00        0.0000E+00
        3.3743E-03        0.0000E+00        4.5110E+00        0.0000E+00
        3.3767E-03        0.0000E+00        4.4130E+00        0.0000E+00
        3.3786E-03        0.0000E+00        3.8700E+00        0.0000E+00
        3.3787E-03        0.0000E+00        3.9440E+00        0.0000E+00
        3.3832E-03        0.0000E+00        3.5130E+00        0.0000E+00
        3.3907E-03        0.0000E+00        3.6110E+00        0.0000E+00
        3.3930E-03        0.0000E+00        3.4380E+00        0.0000E+00
        3.3933E-03        0.0000E+00        3.7340E+00        0.0000E+00
        3.3959E-03        0.0000E+00        3.8570E+00        0.0000E+00
        3.4009E-03        0.0000E+00        3.9190E+00        0.0000E+00
        3.4037E-03        0.0000E+00        4.2020E+00        0.0000E+00
        3.4068E-03        0.0000E+00        4.8430E+00        0.0000E+00
        3.4115E-03        0.0000E+00        4.5970E+00        0.0000E+00
        3.4164E-03        0.0000E+00        4.4980E+00        0.0000E+00
        3.4187E-03        0.0000E+00        4.3870E+00        0.0000E+00
        3.4236E-03        0.0000E+00        4.2640E+00        0.0000E+00
        3.4239E-03        0.0000E+00        4.6090E+00        0.0000E+00
        3.4261E-03        0.0000E+00        4.3250E+00        0.0000E+00
        3.4262E-03        0.0000E+00        4.4610E+00        0.0000E+00
        3.4337E-03        0.0000E+00        4.5220E+00        0.0000E+00
        3.4371E-03        0.0000E+00        5.3980E+00        0.0000E+00
        3.4397E-03        0.0000E+00        5.5950E+00        0.0000E+00
        3.4420E-03        0.0000E+00        5.3730E+00        0.0000E+00
        3.4423E-03        0.0000E+00        5.7180E+00        0.0000E+00
        3.4426E-03        0.0000E+00        5.9770E+00        0.0000E+00
        3.4479E-03        0.0000E+00        6.3340E+00        0.0000E+00
        3.4524E-03        0.0000E+00        5.9150E+00        0.0000E+00
        3.4545E-03        0.0000E+00        5.4830E+00        0.0000E+00
        3.4546E-03        0.0000E+00        5.6310E+00        0.0000E+00
        3.4585E-03        0.0000E+00        4.5590E+00        0.0000E+00
        3.4591E-03        0.0000E+00        5.1380E+00        0.0000E+00
        3.4631E-03        0.0000E+00        4.2130E+00        0.0000E+00
        3.4654E-03        0.0000E+00        4.0410E+00        0.0000E+00
        3.4657E-03        0.0000E+00        4.3120E+00        0.0000E+00
        3.4707E-03        0.0000E+00        4.3730E+00        0.0000E+00
        3.4783E-03        0.0000E+00        4.4970E+00        0.0000E+00
        3.4785E-03        0.0000E+00        4.7920E+00        0.0000E+00
        3.4815E-03        0.0000E+00        5.2730E+00        0.0000E+00
        3.4837E-03        0.0000E+00        4.9650E+00        0.0000E+00
        3.4888E-03        0.0000E+00        5.1250E+00        0.0000E+00
        3.4936E-03        0.0000E+00        5.0390E+00        0.0000E+00
        3.4957E-03        0.0000E+00        4.5820E+00        0.0000E+00
        3.4957E-03        0.0000E+00        4.6690E+00        0.0000E+00
        3.4979E-03        0.0000E+00        4.3480E+00        0.0000E+00
        3.5030E-03        0.0000E+00        4.4840E+00        0.0000E+00
        3.5051E-03        0.0000E+00        4.1140E+00        0.0000E+00
        3.5103E-03        0.0000E+00        4.4090E+00        0.0000E+00
        3.5131E-03        0.0000E+00        4.7300E+00        0.0000E+00
        3.5141E-03        0.0000E+00        5.6670E+00        0.0000E+00
        3.5159E-03        0.0000E+00        5.0380E+00        0.0000E+00
        3.5219E-03        0.0000E+00        6.0610E+00        0.0000E+00
        3.5263E-03        0.0000E+00        5.5060E+00        0.0000E+00
        3.5286E-03        0.0000E+00        5.3210E+00        0.0000E+00
        3.5294E-03        0.0000E+00        6.1470E+00        0.0000E+00
        3.5308E-03        0.0000E+00        5.0500E+00        0.0000E+00
        3.5309E-03        0.0000E+00        5.1610E+00        0.0000E+00
        3.5360E-03        0.0000E+00        5.3460E+00        0.0000E+00
        3.5406E-03        0.0000E+00        5.0000E+00        0.0000E+00
        3.5457E-03        0.0000E+00        5.0990E+00        0.0000E+00
        3.5460E-03        0.0000E+00        5.4200E+00        0.0000E+00
        3.5487E-03        0.0000E+00        5.6910E+00        0.0000E+00
        3.5509E-03        0.0000E+00        5.3450E+00        0.0000E+00
        3.5532E-03        0.0000E+00        5.1600E+00        0.0000E+00
        3.5535E-03        0.0000E+00        5.4930E+00        0.0000E+00
        3.5550E-03        0.0000E+00        4.5560E+00        0.0000E+00
        3.5603E-03        0.0000E+00        4.8150E+00        0.0000E+00
        3.5621E-03        0.0000E+00        4.2230E+00        0.0000E+00
        3.5644E-03        0.0000E+00        4.0380E+00        0.0000E+00
        3.5720E-03        0.0000E+00        4.1370E+00        0.0000E+00
        3.5742E-03        0.0000E+00        3.9150E+00        0.0000E+00
        3.5773E-03        0.0000E+00        4.5560E+00        0.0000E+00
        3.5793E-03        0.0000E+00        4.0750E+00        0.0000E+00
        3.5876E-03        0.0000E+00        4.9870E+00        0.0000E+00
        3.5898E-03        0.0000E+00        4.7030E+00        0.0000E+00
        3.5900E-03        0.0000E+00        4.8270E+00        0.0000E+00
        3.5972E-03        0.0000E+00        4.5920E+00        0.0000E+00
        3.5993E-03        0.0000E+00        4.2590E+00        0.0000E+00
        3.6019E-03        0.0000E+00        4.4070E+00        0.0000E+00
        3.6062E-03        0.0000E+00        3.7780E+00        0.0000E+00
        3.6066E-03        0.0000E+00        4.1730E+00        0.0000E+00
        3.6164E-03        0.0000E+00        4.0000E+00        0.0000E+00
        3.6212E-03        0.0000E+00        3.8520E+00        0.0000E+00
        3.6214E-03        0.0000E+00        4.0980E+00        0.0000E+00
        3.6314E-03        0.0000E+00        4.1970E+00        0.0000E+00
        3.6346E-03        0.0000E+00        4.9120E+00        0.0000E+00
        3.6347E-03        0.0000E+00        4.9730E+00        0.0000E+00
        3.6368E-03        0.0000E+00        4.6160E+00        0.0000E+00
        3.6394E-03        0.0000E+00        4.7640E+00        0.0000E+00
        3.6466E-03        0.0000E+00        4.5660E+00        0.0000E+00
        3.6469E-03        0.0000E+00        4.8380E+00        0.0000E+00
        3.6509E-03        0.0000E+00        3.8760E+00        0.0000E+00
        3.6514E-03        0.0000E+00        4.4180E+00        0.0000E+00
        3.6515E-03        0.0000E+00        4.5050E+00        0.0000E+00
        3.6556E-03        0.0000E+00        3.6170E+00        0.0000E+00
        3.6631E-03        0.0000E+00        3.7280E+00        0.0000E+00
        3.6657E-03        0.0000E+00        3.8630E+00        0.0000E+00
        3.6709E-03        0.0000E+00        4.0480E+00        0.0000E+00
        3.6736E-03        0.0000E+00        4.3310E+00        0.0000E+00
        3.6786E-03        0.0000E+00        4.3680E+00        0.0000E+00
        3.6809E-03        0.0000E+00        4.1960E+00        0.0000E+00
        3.6837E-03        0.0000E+00        4.5280E+00        0.0000E+00
        3.6858E-03        0.0000E+00        4.1710E+00        0.0000E+00
        3.6910E-03        0.0000E+00        4.4050E+00        0.0000E+00
        3.6914E-03        0.0000E+00        4.7990E+00        0.0000E+00
        3.6965E-03        0.0000E+00        4.9600E+00        0.0000E+00
        3.6967E-03        0.0000E+00        5.1200E+00        0.0000E+00
        3.7045E-03        0.0000E+00        5.5140E+00        0.0000E+00
        3.7067E-03        0.0000E+00        5.2680E+00        0.0000E+00
        3.7114E-03        0.0000E+00        4.9470E+00        0.0000E+00
        3.7139E-03        0.0000E+00        5.0210E+00        0.0000E+00
        3.7169E-03        0.0000E+00        5.5020E+00        0.0000E+00
        3.7188E-03        0.0000E+00        4.9100E+00        0.0000E+00
        3.7191E-03        0.0000E+00        5.2550E+00        0.0000E+00
        3.7236E-03        0.0000E+00        4.8360E+00        0.0000E+00
        3.7260E-03        0.0000E+00        4.7490E+00        0.0000E+00
        3.7286E-03        0.0000E+00        4.8970E+00        0.0000E+00
        3.7309E-03        0.0000E+00        4.6880E+00        0.0000E+00
        3.7360E-03        0.0000E+00        4.8350E+00        0.0000E+00
        3.7383E-03        0.0000E+00        4.6010E+00        0.0000E+00
        3.7386E-03        0.0000E+00        4.9830E+00        0.0000E+00
        3.7434E-03        0.0000E+00        4.7860E+00        0.0000E+00
        3.7486E-03        0.0000E+00        5.0080E+00        0.0000E+00
        3.7532E-03        0.0000E+00        4.7240E+00        0.0000E+00
        3.7556E-03        0.0000E+00        4.6620E+00        0.0000E+00
        3.7615E-03        0.0000E+00        5.5500E+00        0.0000E+00
        3.7636E-03        0.0000E+00        5.1680E+00        0.0000E+00
        3.7636E-03        0.0000E+00        5.2290E+00        0.0000E+00
        3.7658E-03        0.0000E+00        4.9460E+00        0.0000E+00
        3.7711E-03        0.0000E+00        5.3030E+00        0.0000E+00
        3.7809E-03        0.0000E+00        5.1670E+00        0.0000E+00
        3.7813E-03        0.0000E+00        5.5620E+00        0.0000E+00
        3.7886E-03        0.0000E+00        5.4880E+00        0.0000E+00
        3.7888E-03        0.0000E+00        5.6350E+00        0.0000E+00
        3.7937E-03        0.0000E+00        5.5860E+00        0.0000E+00
        3.7951E-03        0.0000E+00        4.5500E+00        0.0000E+00
        3.7952E-03        0.0000E+00        4.6240E+00        0.0000E+00
        3.7970E-03        0.0000E+00        3.9220E+00        0.0000E+00
        3.7995E-03        0.0000E+00        4.0080E+00        0.0000E+00
        3.8043E-03        0.0000E+00        3.7610E+00        0.0000E+00
        3.8094E-03        0.0000E+00        4.0080E+00        0.0000E+00
        3.8121E-03        0.0000E+00        4.2290E+00        0.0000E+00
        3.8142E-03        0.0000E+00        3.7980E+00        0.0000E+00
        3.8168E-03        0.0000E+00        3.9090E+00        0.0000E+00
        3.8244E-03        0.0000E+00        4.0810E+00        0.0000E+00
        3.8266E-03        0.0000E+00        3.7980E+00        0.0000E+00
        3.8288E-03        0.0000E+00        3.5510E+00        0.0000E+00
        3.8289E-03        0.0000E+00        3.6250E+00        0.0000E+00
        3.8319E-03        0.0000E+00        4.1550E+00        0.0000E+00
        3.8361E-03        0.0000E+00        3.4640E+00        0.0000E+00
        3.8413E-03        0.0000E+00        3.7110E+00        0.0000E+00
        3.8466E-03        0.0000E+00        3.9940E+00        0.0000E+00
        3.8488E-03        0.0000E+00        3.7600E+00        0.0000E+00
        3.8516E-03        0.0000E+00        4.0680E+00        0.0000E+00
        3.8566E-03        0.0000E+00        4.1300E+00        0.0000E+00
        3.8589E-03        0.0000E+00        3.9940E+00        0.0000E+00
        3.8641E-03        0.0000E+00        4.2530E+00        0.0000E+00
        3.8643E-03        0.0000E+00        4.4380E+00        0.0000E+00
        3.8718E-03        0.0000E+00        4.5110E+00        0.0000E+00
        3.8776E-03        0.0000E+00        5.3500E+00        0.0000E+00
        3.8801E-03        0.0000E+00        5.3870E+00        0.0000E+00
        3.8849E-03        0.0000E+00        5.2390E+00        0.0000E+00
        3.8878E-03        0.0000E+00        5.6450E+00        0.0000E+00
        3.8925E-03        0.0000E+00        5.3620E+00        0.0000E+00
        3.8954E-03        0.0000E+00        5.7680E+00        0.0000E+00
        3.9002E-03        0.0000E+00        5.6450E+00        0.0000E+00
        3.9053E-03        0.0000E+00        5.8180E+00        0.0000E+00
        3.9076E-03        0.0000E+00        5.6080E+00        0.0000E+00
        3.9099E-03        0.0000E+00        5.4230E+00        0.0000E+00
        3.9105E-03        0.0000E+00        6.0890E+00        0.0000E+00
        3.9119E-03        0.0000E+00        4.9670E+00        0.0000E+00
        3.9172E-03        0.0000E+00        5.3240E+00        0.0000E+00
        3.9236E-03        0.0000E+00        4.3250E+00        0.0000E+00
        3.9284E-03        0.0000E+00        4.1030E+00        0.0000E+00
        3.9311E-03        0.0000E+00        4.3370E+00        0.0000E+00
        3.9337E-03        0.0000E+00        4.4850E+00        0.0000E+00
        3.9360E-03        0.0000E+00        4.2760E+00        0.0000E+00
        3.9388E-03        0.0000E+00        4.6450E+00        0.0000E+00
        3.9418E-03        0.0000E+00        5.2000E+00        0.0000E+00
        3.9464E-03        0.0000E+00        4.8180E+00        0.0000E+00
        3.9485E-03        0.0000E+00        4.4600E+00        0.0000E+00
        3.9512E-03        0.0000E+00        4.6820E+00        0.0000E+00
        3.9535E-03        0.0000E+00        4.4850E+00        0.0000E+00
        3.9557E-03        0.0000E+00        4.2510E+00        0.0000E+00
        3.9586E-03        0.0000E+00        4.6450E+00        0.0000E+00
        3.9659E-03        0.0000E+00        4.5710E+00        0.0000E+00
        3.9685E-03        0.0000E+00        4.6940E+00        0.0000E+00
        3.9758E-03        0.0000E+00        4.5340E+00        0.0000E+00
        3.9782E-03        0.0000E+00        4.3980E+00        0.0000E+00
        3.9809E-03        0.0000E+00        4.6320E+00        0.0000E+00
        3.9828E-03        0.0000E+00        4.0900E+00        0.0000E+00
        3.9828E-03        0.0000E+00        4.1270E+00        0.0000E+00
        3.9901E-03        0.0000E+00        4.0150E+00        0.0000E+00
        3.9903E-03        0.0000E+00        4.1510E+00        0.0000E+00
        3.9928E-03        0.0000E+00        4.2130E+00        0.0000E+00
        3.9979E-03        0.0000E+00        4.3850E+00        0.0000E+00
        3.9981E-03        0.0000E+00        4.5950E+00        0.0000E+00
        4.0031E-03        0.0000E+00        4.5580E+00        0.0000E+00
        4.0083E-03        0.0000E+00        4.8160E+00        0.0000E+00
        4.0102E-03        0.0000E+00        4.2610E+00        0.0000E+00
        4.0176E-03        0.0000E+00        4.2240E+00        0.0000E+00
        4.0203E-03        0.0000E+00        4.4710E+00        0.0000E+00
        4.0204E-03        0.0000E+00        4.5320E+00        0.0000E+00
        4.0225E-03        0.0000E+00        4.1750E+00        0.0000E+00
        4.0298E-03        0.0000E+00        4.0760E+00        0.0000E+00
        4.0324E-03        0.0000E+00        4.2360E+00        0.0000E+00
        4.0325E-03        0.0000E+00        4.3230E+00        0.0000E+00
        4.0347E-03        0.0000E+00        4.0270E+00        0.0000E+00
        4.0402E-03        0.0000E+00        4.5810E+00        0.0000E+00
        4.0451E-03        0.0000E+00        4.4830E+00        0.0000E+00
        4.0473E-03        0.0000E+00        4.2850E+00        0.0000E+00
        4.0498E-03        0.0000E+00        4.2240E+00        0.0000E+00
        4.0544E-03        0.0000E+00        3.9030E+00        0.0000E+00
        4.0596E-03        0.0000E+00        4.1120E+00        0.0000E+00
        4.0620E-03        0.0000E+00        4.0380E+00        0.0000E+00
        4.0672E-03        0.0000E+00        4.3220E+00        0.0000E+00
        4.0695E-03        0.0000E+00        4.1240E+00        0.0000E+00
        4.0793E-03        0.0000E+00        4.0380E+00        0.0000E+00
        4.0815E-03        0.0000E+00        3.7670E+00        0.0000E+00
        4.0819E-03        0.0000E+00        4.1360E+00        0.0000E+00
        4.0867E-03        0.0000E+00        4.0130E+00        0.0000E+00
        4.0895E-03        0.0000E+00        4.3340E+00        0.0000E+00
        4.0918E-03        0.0000E+00        4.2220E+00        0.0000E+00
        4.0994E-03        0.0000E+00        4.3950E+00        0.0000E+00
        4.1018E-03        0.0000E+00        4.2470E+00        0.0000E+00
        4.1021E-03        0.0000E+00        4.5920E+00        0.0000E+00
        4.1068E-03        0.0000E+00        4.3330E+00        0.0000E+00
        4.1144E-03        0.0000E+00        4.4930E+00        0.0000E+00
        4.1146E-03        0.0000E+00        4.7030E+00        0.0000E+00
        4.1172E-03        0.0000E+00        4.8630E+00        0.0000E+00
        4.1249E-03        0.0000E+00        5.1090E+00        0.0000E+00
        4.1251E-03        0.0000E+00        5.3190E+00        0.0000E+00
        4.1347E-03        0.0000E+00        4.9860E+00        0.0000E+00
        4.1350E-03        0.0000E+00        5.2820E+00        0.0000E+00
        4.1394E-03        0.0000E+00        4.7270E+00        0.0000E+00
        4.1398E-03        0.0000E+00        5.1090E+00        0.0000E+00
        4.1442E-03        0.0000E+00        4.5660E+00        0.0000E+00
        4.1467E-03        0.0000E+00        4.6030E+00        0.0000E+00
        4.1519E-03        0.0000E+00        4.8870E+00        0.0000E+00
        4.1592E-03        0.0000E+00        4.7390E+00        0.0000E+00
        4.1615E-03        0.0000E+00        4.5290E+00        0.0000E+00
        4.1618E-03        0.0000E+00        4.8990E+00        0.0000E+00
        4.1673E-03        0.0000E+00        5.3920E+00        0.0000E+00
        4.1675E-03        0.0000E+00        5.5890E+00        0.0000E+00
        4.1702E-03        0.0000E+00        5.8360E+00        0.0000E+00
        4.1825E-03        0.0000E+00        5.8230E+00        0.0000E+00
        4.1828E-03        0.0000E+00        6.0700E+00        0.0000E+00
        4.1851E-03        0.0000E+00        5.8850E+00        0.0000E+00
        4.1877E-03        0.0000E+00        6.0080E+00        0.0000E+00
        4.1943E-03        0.0000E+00        5.2060E+00        0.0000E+00
        4.1990E-03        0.0000E+00        4.9100E+00        0.0000E+00
        4.2012E-03        0.0000E+00        4.6270E+00        0.0000E+00
        4.2039E-03        0.0000E+00        4.8980E+00        0.0000E+00
        4.2091E-03        0.0000E+00        5.1940E+00        0.0000E+00
        4.2094E-03        0.0000E+00        5.4400E+00        0.0000E+00
        4.2168E-03        0.0000E+00        5.3910E+00        0.0000E+00
        4.2195E-03        0.0000E+00        5.6740E+00        0.0000E+00
        4.2243E-03        0.0000E+00        5.5140E+00        0.0000E+00
        4.2265E-03        0.0000E+00        5.2670E+00        0.0000E+00
        4.2312E-03        0.0000E+00        4.9340E+00        0.0000E+00
        4.2313E-03        0.0000E+00        5.0820E+00        0.0000E+00
        4.2334E-03        0.0000E+00        4.7000E+00        0.0000E+00
        4.2461E-03        0.0000E+00        5.0690E+00        0.0000E+00
        4.2479E-03        0.0000E+00        4.3050E+00        0.0000E+00
        4.2556E-03        0.0000E+00        4.5760E+00        0.0000E+00
        4.2581E-03        0.0000E+00        4.6750E+00        0.0000E+00
        4.2650E-03        0.0000E+00        4.0830E+00        0.0000E+00
        4.2698E-03        0.0000E+00        3.9720E+00        0.0000E+00
        4.2702E-03        0.0000E+00        4.3170E+00        0.0000E+00
        4.2806E-03        0.0000E+00        4.9080E+00        0.0000E+00
        4.2828E-03        0.0000E+00        4.6250E+00        0.0000E+00
        4.2860E-03        0.0000E+00        5.2900E+00        0.0000E+00
        4.2881E-03        0.0000E+00        4.9820E+00        0.0000E+00
        4.3007E-03        0.0000E+00        5.1910E+00        0.0000E+00
        4.3026E-03        0.0000E+00        4.6120E+00        0.0000E+00
        4.3082E-03        0.0000E+00        5.2770E+00        0.0000E+00
        4.3083E-03        0.0000E+00        5.3880E+00        0.0000E+00
        4.3130E-03        0.0000E+00        5.0680E+00        0.0000E+00
        4.3178E-03        0.0000E+00        4.9570E+00        0.0000E+00
        4.3199E-03        0.0000E+00        4.5870E+00        0.0000E+00
        4.3200E-03        0.0000E+00        4.6980E+00        0.0000E+00
        4.3246E-03        0.0000E+00        4.2780E+00        0.0000E+00
        4.3341E-03        0.0000E+00        3.9330E+00        0.0000E+00
        4.3342E-03        0.0000E+00        4.0560E+00        0.0000E+00
        4.3390E-03        0.0000E+00        3.8340E+00        0.0000E+00
        4.3436E-03        0.0000E+00        3.5260E+00        0.0000E+00
        4.3491E-03        0.0000E+00        4.0310E+00        0.0000E+00
        4.3538E-03        0.0000E+00        3.8340E+00        0.0000E+00
        4.3567E-03        0.0000E+00        4.1910E+00        0.0000E+00
        4.3571E-03        0.0000E+00        4.6350E+00        0.0000E+00
        4.3698E-03        0.0000E+00        4.9680E+00        0.0000E+00
        4.3752E-03        0.0000E+00        5.4360E+00        0.0000E+00
        4.3775E-03        0.0000E+00        5.2510E+00        0.0000E+00
        4.3795E-03        0.0000E+00        4.7460E+00        0.0000E+00
        4.3828E-03        0.0000E+00        5.5960E+00        0.0000E+00
        4.3843E-03        0.0000E+00        4.5970E+00        0.0000E+00
        4.3871E-03        0.0000E+00        4.9550E+00        0.0000E+00
        4.3890E-03        0.0000E+00        4.3630E+00        0.0000E+00
        4.3989E-03        0.0000E+00        4.4000E+00        0.0000E+00
        4.4018E-03        0.0000E+00        4.7330E+00        0.0000E+00
        4.4041E-03        0.0000E+00        4.5850E+00        0.0000E+00
        4.4070E-03        0.0000E+00        5.0160E+00        0.0000E+00
        4.4123E-03        0.0000E+00        5.3740E+00        0.0000E+00
        4.4149E-03        0.0000E+00        5.4970E+00        0.0000E+00
        4.4151E-03        0.0000E+00        5.7190E+00        0.0000E+00
        4.4225E-03        0.0000E+00        5.6570E+00        0.0000E+00
        4.4268E-03        0.0000E+00        5.0400E+00        0.0000E+00
        4.4318E-03        0.0000E+00        5.0770E+00        0.0000E+00
        4.4341E-03        0.0000E+00        4.8800E+00        0.0000E+00
        4.4390E-03        0.0000E+00        4.8300E+00        0.0000E+00
        4.4461E-03        0.0000E+00        4.5710E+00        0.0000E+00
        4.4463E-03        0.0000E+00        4.7560E+00        0.0000E+00
        4.4537E-03        0.0000E+00        4.6570E+00        0.0000E+00
        4.4587E-03        0.0000E+00        4.7930E+00        0.0000E+00
        4.4634E-03        0.0000E+00        4.4850E+00        0.0000E+00
        4.4686E-03        0.0000E+00        4.7310E+00        0.0000E+00
        4.4708E-03        0.0000E+00        4.4470E+00        0.0000E+00
        4.4757E-03        0.0000E+00        4.3980E+00        0.0000E+00
        4.4804E-03        0.0000E+00        4.1510E+00        0.0000E+00
        4.4827E-03        0.0000E+00        3.9910E+00        0.0000E+00
        4.4876E-03        0.0000E+00        3.9290E+00        0.0000E+00
        4.4927E-03        0.0000E+00        4.1260E+00        0.0000E+00
        4.4949E-03        0.0000E+00        3.8550E+00        0.0000E+00
        4.5003E-03        0.0000E+00        4.2490E+00        0.0000E+00
        4.5052E-03        0.0000E+00        4.2250E+00        0.0000E+00
        4.5079E-03        0.0000E+00        4.3970E+00        0.0000E+00
        4.5129E-03        0.0000E+00        4.5080E+00        0.0000E+00
        4.5182E-03        0.0000E+00        4.8410E+00        0.0000E+00
        4.5232E-03        0.0000E+00        4.9150E+00        0.0000E+00
        4.5307E-03        0.0000E+00        5.0130E+00        0.0000E+00
        4.5334E-03        0.0000E+00        5.2100E+00        0.0000E+00
        4.5376E-03        0.0000E+00        4.4330E+00        0.0000E+00
        4.5404E-03        0.0000E+00        4.7170E+00        0.0000E+00
        4.5423E-03        0.0000E+00        4.1370E+00        0.0000E+00
        4.5473E-03        0.0000E+00        4.2850E+00        0.0000E+00
        4.5525E-03        0.0000E+00        4.4950E+00        0.0000E+00
        4.5547E-03        0.0000E+00        4.1860E+00        0.0000E+00
        4.5595E-03        0.0000E+00        4.0140E+00        0.0000E+00
        4.5598E-03        0.0000E+00        4.3960E+00        0.0000E+00
        4.5687E-03        0.0000E+00        3.3600E+00        0.0000E+00
        4.5693E-03        0.0000E+00        3.9640E+00        0.0000E+00
        4.5839E-03        0.0000E+00        3.6930E+00        0.0000E+00
        4.5844E-03        0.0000E+00        4.1730E+00        0.0000E+00
        4.5897E-03        0.0000E+00        4.5430E+00        0.0000E+00
        4.5925E-03        0.0000E+00        4.8390E+00        0.0000E+00
        4.6028E-03        0.0000E+00        5.3070E+00        0.0000E+00
        4.6050E-03        0.0000E+00        5.0240E+00        0.0000E+00
        4.6096E-03        0.0000E+00        4.6780E+00        0.0000E+00
        4.6146E-03        0.0000E+00        4.7520E+00        0.0000E+00
        4.6167E-03        0.0000E+00        4.3450E+00        0.0000E+00
        4.6188E-03        0.0000E+00        3.9260E+00        0.0000E+00
        4.6241E-03        0.0000E+00        4.3080E+00        0.0000E+00
        4.6288E-03        0.0000E+00        4.0610E+00        0.0000E+00
        4.6311E-03        0.0000E+00        3.9260E+00        0.0000E+00
        4.6360E-03        0.0000E+00        3.7780E+00        0.0000E+00
        4.6383E-03        0.0000E+00        3.6670E+00        0.0000E+00
        4.6458E-03        0.0000E+00        3.7400E+00        0.0000E+00
        4.6481E-03        0.0000E+00        3.5550E+00        0.0000E+00
        4.6502E-03        0.0000E+00        3.1980E+00        0.0000E+00
        4.6553E-03        0.0000E+00        3.3460E+00        0.0000E+00
        4.6607E-03        0.0000E+00        3.7520E+00        0.0000E+00
        4.6683E-03        0.0000E+00        3.9990E+00        0.0000E+00
        4.6757E-03        0.0000E+00        3.8880E+00        0.0000E+00
        4.6779E-03        0.0000E+00        3.6410E+00        0.0000E+00
        4.6805E-03        0.0000E+00        3.7390E+00        0.0000E+00
        4.6832E-03        0.0000E+00        3.9610E+00        0.0000E+00
        4.6855E-03        0.0000E+00        3.8500E+00        0.0000E+00
        4.6908E-03        0.0000E+00        4.1830E+00        0.0000E+00
        4.6981E-03        0.0000E+00        4.0840E+00        0.0000E+00
        4.7059E-03        0.0000E+00        4.4540E+00        0.0000E+00
        4.7129E-03        0.0000E+00        4.0100E+00        0.0000E+00
        4.7132E-03        0.0000E+00        4.2930E+00        0.0000E+00
        4.7175E-03        0.0000E+00        3.6890E+00        0.0000E+00
        4.7179E-03        0.0000E+00        3.9970E+00        0.0000E+00
        4.7224E-03        0.0000E+00        3.6030E+00        0.0000E+00
        4.7300E-03        0.0000E+00        3.7260E+00        0.0000E+00
        4.7346E-03        0.0000E+00        3.4180E+00        0.0000E+00
        4.7371E-03        0.0000E+00        3.4670E+00        0.0000E+00
        4.7421E-03        0.0000E+00        3.5160E+00        0.0000E+00
        4.7448E-03        0.0000E+00        3.7500E+00        0.0000E+00
        4.7525E-03        0.0000E+00        3.9720E+00        0.0000E+00
        4.7525E-03        0.0000E+00        4.0210E+00        0.0000E+00
        4.7576E-03        0.0000E+00        4.0950E+00        0.0000E+00
        4.7647E-03        0.0000E+00        3.7870E+00        0.0000E+00
        4.7747E-03        0.0000E+00        3.8730E+00        0.0000E+00
        4.7799E-03        0.0000E+00        4.1190E+00        0.0000E+00
        4.7872E-03        0.0000E+00        4.0200E+00        0.0000E+00
        4.7876E-03        0.0000E+00        4.4400E+00        0.0000E+00
        4.7951E-03        0.0000E+00        4.5010E+00        0.0000E+00
        4.8056E-03        0.0000E+00        5.1050E+00        0.0000E+00
        4.8131E-03        0.0000E+00        5.1910E+00        0.0000E+00
        4.8252E-03        0.0000E+00        4.8950E+00        0.0000E+00
        4.8275E-03        0.0000E+00        4.7590E+00        0.0000E+00
        4.8321E-03        0.0000E+00        4.4260E+00        0.0000E+00
        4.8390E-03        0.0000E+00        3.8710E+00        0.0000E+00
        4.8435E-03        0.0000E+00        3.3900E+00        0.0000E+00
        4.8437E-03        0.0000E+00        3.5630E+00        0.0000E+00
        4.8459E-03        0.0000E+00        3.2920E+00        0.0000E+00
        4.8530E-03        0.0000E+00        2.9950E+00        0.0000E+00
        4.8581E-03        0.0000E+00        3.1680E+00        0.0000E+00
        4.8654E-03        0.0000E+00        3.0570E+00        0.0000E+00
        4.8707E-03        0.0000E+00        3.3530E+00        0.0000E+00
        4.8759E-03        0.0000E+00        3.6110E+00        0.0000E+00
        4.8807E-03        0.0000E+00        3.4260E+00        0.0000E+00
        4.8902E-03        0.0000E+00        3.0560E+00        0.0000E+00
        4.8929E-03        0.0000E+00        3.2660E+00        0.0000E+00
        4.8955E-03        0.0000E+00        3.4380E+00        0.0000E+00
        4.9007E-03        0.0000E+00        3.7090E+00        0.0000E+00
        4.9078E-03        0.0000E+00        3.3890E+00        0.0000E+00
        4.9085E-03        0.0000E+00        4.0420E+00        0.0000E+00
        4.9163E-03        0.0000E+00        4.4360E+00        0.0000E+00
        4.9189E-03        0.0000E+00        4.5100E+00        0.0000E+00
        4.9190E-03        0.0000E+00        4.6460E+00        0.0000E+00
        4.9285E-03        0.0000E+00        4.2760E+00        0.0000E+00
        4.9312E-03        0.0000E+00        4.4850E+00        0.0000E+00
        4.9404E-03        0.0000E+00        3.7950E+00        0.0000E+00
        4.9409E-03        0.0000E+00        4.2260E+00        0.0000E+00
        4.9480E-03        0.0000E+00        3.9550E+00        0.0000E+00
        4.9529E-03        0.0000E+00        3.9050E+00        0.0000E+00
        4.9559E-03        0.0000E+00        4.3980E+00        0.0000E+00
        4.9587E-03        0.0000E+00        4.7810E+00        0.0000E+00
        4.9709E-03        0.0000E+00        4.5340E+00        0.0000E+00
        4.9713E-03        0.0000E+00        4.9650E+00        0.0000E+00
        4.9779E-03        0.0000E+00        4.1270E+00        0.0000E+00
        4.9780E-03        0.0000E+00        4.2620E+00        0.0000E+00
        4.9901E-03        0.0000E+00        4.0030E+00        0.0000E+00
        4.9902E-03        0.0000E+00        4.0650E+00        0.0000E+00
        4.9928E-03        0.0000E+00        4.2130E+00        0.0000E+00
        4.9974E-03        0.0000E+00        3.8800E+00        0.0000E+00
        5.0046E-03        0.0000E+00        3.6450E+00        0.0000E+00
        5.0074E-03        0.0000E+00        3.9160E+00        0.0000E+00
        5.0148E-03        0.0000E+00        3.8670E+00        0.0000E+00
        5.0200E-03        0.0000E+00        4.2000E+00        0.0000E+00
        5.0223E-03        0.0000E+00        3.9530E+00        0.0000E+00
        5.0297E-03        0.0000E+00        4.0020E+00        0.0000E+00
        5.0323E-03        0.0000E+00        4.0880E+00        0.0000E+00
        5.0372E-03        0.0000E+00        4.0270E+00        0.0000E+00
        5.0375E-03        0.0000E+00        4.3220E+00        0.0000E+00
        5.0424E-03        0.0000E+00        4.2610E+00        0.0000E+00
        5.0473E-03        0.0000E+00        4.1990E+00        0.0000E+00
        5.0546E-03        0.0000E+00        4.1370E+00        0.0000E+00
        5.0570E-03        0.0000E+00        4.0630E+00        0.0000E+00
        5.0616E-03        0.0000E+00        3.6680E+00        0.0000E+00
        5.0690E-03        0.0000E+00        3.6070E+00        0.0000E+00
        5.0740E-03        0.0000E+00        3.7540E+00        0.0000E+00
        5.0815E-03        0.0000E+00        3.8280E+00        0.0000E+00
        5.0838E-03        0.0000E+00        3.5570E+00        0.0000E+00
        5.0839E-03        0.0000E+00        3.7050E+00        0.0000E+00
        5.0939E-03        0.0000E+00        3.7660E+00        0.0000E+00
        5.0987E-03        0.0000E+00        3.6310E+00        0.0000E+00
        5.1035E-03        0.0000E+00        3.4700E+00        0.0000E+00
        5.1112E-03        0.0000E+00        3.7900E+00        0.0000E+00
        5.1166E-03        0.0000E+00        4.1850E+00        0.0000E+00
        5.1188E-03        0.0000E+00        3.9380E+00        0.0000E+00
        5.1212E-03        0.0000E+00        3.8640E+00        0.0000E+00
        5.1262E-03        0.0000E+00        3.9630E+00        0.0000E+00
        5.1335E-03        0.0000E+00        3.7900E+00        0.0000E+00
        5.1386E-03        0.0000E+00        3.9130E+00        0.0000E+00
        5.1461E-03        0.0000E+00        3.9870E+00        0.0000E+00
        5.1507E-03        0.0000E+00        3.6660E+00        0.0000E+00
        5.1581E-03        0.0000E+00        3.6660E+00        0.0000E+00
        5.1605E-03        0.0000E+00        3.5670E+00        0.0000E+00
        5.1705E-03        0.0000E+00        3.6660E+00        0.0000E+00
        5.1731E-03        0.0000E+00        3.7640E+00        0.0000E+00
        5.1754E-03        0.0000E+00        3.5920E+00        0.0000E+00
        5.1803E-03        0.0000E+00        3.6040E+00        0.0000E+00
        5.1856E-03        0.0000E+00        3.9000E+00        0.0000E+00
        5.1885E-03        0.0000E+00        4.3060E+00        0.0000E+00
        5.1933E-03        0.0000E+00        4.1830E+00        0.0000E+00
        5.2006E-03        0.0000E+00        4.0720E+00        0.0000E+00
        5.2007E-03        0.0000E+00        4.1950E+00        0.0000E+00
        5.2106E-03        0.0000E+00        4.2070E+00        0.0000E+00
        5.2128E-03        0.0000E+00        3.9240E+00        0.0000E+00
        5.2180E-03        0.0000E+00        4.1450E+00        0.0000E+00
        5.2255E-03        0.0000E+00        4.2440E+00        0.0000E+00
        5.2356E-03        0.0000E+00        4.4530E+00        0.0000E+00
        5.2384E-03        0.0000E+00        4.7240E+00        0.0000E+00
        5.2454E-03        0.0000E+00        4.3050E+00        0.0000E+00
        5.2502E-03        0.0000E+00        4.1820E+00        0.0000E+00
        5.2505E-03        0.0000E+00        4.4900E+00        0.0000E+00
        5.2601E-03        0.0000E+00        4.1570E+00        0.0000E+00
        5.2651E-03        0.0000E+00        4.2310E+00        0.0000E+00
        5.2699E-03        0.0000E+00        4.1070E+00        0.0000E+00
        5.2700E-03        0.0000E+00        4.1930E+00        0.0000E+00
        5.2773E-03        0.0000E+00        4.0330E+00        0.0000E+00
        5.2849E-03        0.0000E+00        4.1680E+00        0.0000E+00
        5.2925E-03        0.0000E+00        4.4020E+00        0.0000E+00
        5.2972E-03        0.0000E+00        4.1310E+00        0.0000E+00
        5.2974E-03        0.0000E+00        4.3410E+00        0.0000E+00
        5.3096E-03        0.0000E+00        4.1430E+00        0.0000E+00
        5.3099E-03        0.0000E+00        4.4390E+00        0.0000E+00
        5.3122E-03        0.0000E+00        4.2420E+00        0.0000E+00
        5.3197E-03        0.0000E+00        4.3520E+00        0.0000E+00
        5.3268E-03        0.0000E+00        4.0810E+00        0.0000E+00
        5.3292E-03        0.0000E+00        3.9950E+00        0.0000E+00
        5.3370E-03        0.0000E+00        4.3520E+00        0.0000E+00
        5.3419E-03        0.0000E+00        4.2530E+00        0.0000E+00
        5.3466E-03        0.0000E+00        4.0310E+00        0.0000E+00
        5.3489E-03        0.0000E+00        3.8460E+00        0.0000E+00
        5.3562E-03        0.0000E+00        3.7600E+00        0.0000E+00
        5.3564E-03        0.0000E+00        3.9570E+00        0.0000E+00
        5.3684E-03        0.0000E+00        3.5380E+00        0.0000E+00
        5.3736E-03        0.0000E+00        3.8330E+00        0.0000E+00
        5.3835E-03        0.0000E+00        3.7840E+00        0.0000E+00
        5.3859E-03        0.0000E+00        3.6970E+00        0.0000E+00
        5.3932E-03        0.0000E+00        3.5990E+00        0.0000E+00
        5.3986E-03        0.0000E+00        4.0420E+00        0.0000E+00
        5.4014E-03        0.0000E+00        4.4240E+00        0.0000E+00
        5.4090E-03        0.0000E+00        4.5970E+00        0.0000E+00
        5.4117E-03        0.0000E+00        4.8060E+00        0.0000E+00
        5.4168E-03        0.0000E+00        4.9670E+00        0.0000E+00
        5.4242E-03        0.0000E+00        4.9540E+00        0.0000E+00
        5.4361E-03        0.0000E+00        4.3740E+00        0.0000E+00
        5.4383E-03        0.0000E+00        4.1520E+00        0.0000E+00
        5.4414E-03        0.0000E+00        4.7320E+00        0.0000E+00
        5.4514E-03        0.0000E+00        4.8550E+00        0.0000E+00
        5.4537E-03        0.0000E+00        4.7070E+00        0.0000E+00
        5.4587E-03        0.0000E+00        4.7680E+00        0.0000E+00
        5.4689E-03        0.0000E+00        5.0390E+00        0.0000E+00
        5.4789E-03        0.0000E+00        5.1620E+00        0.0000E+00
        5.4809E-03        0.0000E+00        4.6940E+00        0.0000E+00
        5.4830E-03        0.0000E+00        4.3240E+00        0.0000E+00
        5.4878E-03        0.0000E+00        4.1260E+00        0.0000E+00
        5.4978E-03        0.0000E+00        4.2490E+00        0.0000E+00
        5.4999E-03        0.0000E+00        3.8180E+00        0.0000E+00
        5.5071E-03        0.0000E+00        3.5960E+00        0.0000E+00
        5.5124E-03        0.0000E+00        3.9410E+00        0.0000E+00
        5.5225E-03        0.0000E+00        4.1500E+00        0.0000E+00
        5.5248E-03        0.0000E+00        3.9780E+00        0.0000E+00
        5.5325E-03        0.0000E+00        4.2730E+00        0.0000E+00
        5.5375E-03        0.0000E+00        4.3720E+00        0.0000E+00
        5.5474E-03        0.0000E+00        4.3470E+00        0.0000E+00
        5.5544E-03        0.0000E+00        3.9150E+00        0.0000E+00
        5.5567E-03        0.0000E+00        3.7550E+00        0.0000E+00
        5.5640E-03        0.0000E+00        3.6440E+00        0.0000E+00
        5.5766E-03        0.0000E+00        3.8650E+00        0.0000E+00
        5.5787E-03        0.0000E+00        3.4830E+00        0.0000E+00
        5.5788E-03        0.0000E+00        3.5690E+00        0.0000E+00
        5.5865E-03        0.0000E+00        3.8650E+00        0.0000E+00
        5.5937E-03        0.0000E+00        3.5810E+00        0.0000E+00
        5.5941E-03        0.0000E+00        3.9640E+00        0.0000E+00
        5.6010E-03        0.0000E+00        3.4580E+00        0.0000E+00
        5.6086E-03        0.0000E+00        3.6800E+00        0.0000E+00
        5.6134E-03        0.0000E+00        3.4950E+00        0.0000E+00
        5.6184E-03        0.0000E+00        3.5440E+00        0.0000E+00
        5.6284E-03        0.0000E+00        3.6050E+00        0.0000E+00
        5.6309E-03        0.0000E+00        3.6910E+00        0.0000E+00
        5.6406E-03        0.0000E+00        3.4690E+00        0.0000E+00
        5.6458E-03        0.0000E+00        3.7400E+00        0.0000E+00
        5.6482E-03        0.0000E+00        3.6660E+00        0.0000E+00
        5.6581E-03        0.0000E+00        3.6660E+00        0.0000E+00
        5.6636E-03        0.0000E+00        4.2210E+00        0.0000E+00
        5.6660E-03        0.0000E+00        4.1220E+00        0.0000E+00
        5.6739E-03        0.0000E+00        4.5660E+00        0.0000E+00
        5.6786E-03        0.0000E+00        4.3070E+00        0.0000E+00
        5.6886E-03        0.0000E+00        4.4670E+00        0.0000E+00
        5.6961E-03        0.0000E+00        4.5650E+00        0.0000E+00
        5.6985E-03        0.0000E+00        4.4540E+00        0.0000E+00
        5.7057E-03        0.0000E+00        4.2070E+00        0.0000E+00
        5.7080E-03        0.0000E+00        4.0220E+00        0.0000E+00
        5.7157E-03        0.0000E+00        4.3550E+00        0.0000E+00
        5.7205E-03        0.0000E+00        4.2190E+00        0.0000E+00
        5.7282E-03        0.0000E+00        4.4290E+00        0.0000E+00
        5.7304E-03        0.0000E+00        4.1820E+00        0.0000E+00
        5.7382E-03        0.0000E+00        4.5520E+00        0.0000E+00
        5.7408E-03        0.0000E+00        4.7000E+00        0.0000E+00
        5.7531E-03        0.0000E+00        4.6010E+00        0.0000E+00
        5.7534E-03        0.0000E+00        4.8600E+00        0.0000E+00
        5.7580E-03        0.0000E+00        4.5390E+00        0.0000E+00
        5.7634E-03        0.0000E+00        5.0440E+00        0.0000E+00
        5.7705E-03        0.0000E+00        4.6370E+00        0.0000E+00
        5.7758E-03        0.0000E+00        5.0560E+00        0.0000E+00
        5.7806E-03        0.0000E+00        4.9080E+00        0.0000E+00
        5.7880E-03        0.0000E+00        4.7970E+00        0.0000E+00
        5.7975E-03        0.0000E+00        4.4270E+00        0.0000E+00
        5.7978E-03        0.0000E+00        4.7600E+00        0.0000E+00
        5.8022E-03        0.0000E+00        4.1430E+00        0.0000E+00
        5.8069E-03        0.0000E+00        3.8970E+00        0.0000E+00
        5.8141E-03        0.0000E+00        3.7120E+00        0.0000E+00
        5.8189E-03        0.0000E+00        3.5260E+00        0.0000E+00
        5.8265E-03        0.0000E+00        3.7360E+00        0.0000E+00
        5.8289E-03        0.0000E+00        3.6500E+00        0.0000E+00
        5.8338E-03        0.0000E+00        3.6000E+00        0.0000E+00
        5.8461E-03        0.0000E+00        3.5630E+00        0.0000E+00
        5.8463E-03        0.0000E+00        3.7110E+00        0.0000E+00
        5.8513E-03        0.0000E+00        3.7480E+00        0.0000E+00
        5.8685E-03        0.0000E+00        3.6980E+00        0.0000E+00
        5.8714E-03        0.0000E+00        4.0920E+00        0.0000E+00
        5.8763E-03        0.0000E+00        4.0310E+00        0.0000E+00
        5.8810E-03        0.0000E+00        3.8210E+00        0.0000E+00
        5.8911E-03        0.0000E+00        3.9440E+00        0.0000E+00
        5.9010E-03        0.0000E+00        3.9560E+00        0.0000E+00
        5.9035E-03        0.0000E+00        4.0300E+00        0.0000E+00
        5.9132E-03        0.0000E+00        3.7950E+00        0.0000E+00
        5.9158E-03        0.0000E+00        3.8820E+00        0.0000E+00
        5.9260E-03        0.0000E+00        4.2640E+00        0.0000E+00
        5.9306E-03        0.0000E+00        3.8810E+00        0.0000E+00
        5.9358E-03        0.0000E+00        4.1280E+00        0.0000E+00
        5.9480E-03        0.0000E+00        3.9920E+00        0.0000E+00
        5.9577E-03        0.0000E+00        3.7700E+00        0.0000E+00
        5.9652E-03        0.0000E+00        3.8430E+00        0.0000E+00
        5.9702E-03        0.0000E+00        3.9050E+00        0.0000E+00
        5.9801E-03        0.0000E+00        3.8920E+00        0.0000E+00
        5.9824E-03        0.0000E+00        3.6950E+00        0.0000E+00
        5.9875E-03        0.0000E+00        3.8060E+00        0.0000E+00
        5.9921E-03        0.0000E+00        3.4980E+00        0.0000E+00
        5.9996E-03        0.0000E+00        3.5590E+00        0.0000E+00
        6.0048E-03        0.0000E+00        4.0610E+00        0.0000E+00
        6.0333E-03        0.0000E+00        3.8350E+00        0.0000E+00
        6.0338E-03        0.0000E+00        3.9070E+00        0.0000E+00
        6.0399E-03        0.0000E+00        3.9270E+00        0.0000E+00
        6.0462E-03        0.0000E+00        3.9690E+00        0.0000E+00
        6.0526E-03        0.0000E+00        4.0240E+00        0.0000E+00
        6.0556E-03        0.0000E+00        3.5930E+00        0.0000E+00
        6.0743E-03        0.0000E+00        3.6760E+00        0.0000E+00
        6.0760E-03        0.0000E+00        3.9360E+00        0.0000E+00
        6.0875E-03        0.0000E+00        3.8560E+00        0.0000E+00
        6.0998E-03        0.0000E+00        3.8980E+00        0.0000E+00
        6.1081E-03        0.0000E+00        4.2200E+00        0.0000E+00
        6.1083E-03        0.0000E+00        4.2580E+00        0.0000E+00
        6.1126E-03        0.0000E+00        4.0030E+00        0.0000E+00
        6.1191E-03        0.0000E+00        4.0820E+00        0.0000E+00
        6.1291E-03        0.0000E+00        3.7810E+00        0.0000E+00
        6.1369E-03        0.0000E+00        4.0400E+00        0.0000E+00
        6.1422E-03        0.0000E+00        3.9360E+00        0.0000E+00
        6.1488E-03        0.0000E+00        4.0190E+00        0.0000E+00
        6.1598E-03        0.0000E+00        3.8770E+00        0.0000E+00
        6.1605E-03        0.0000E+00        3.9690E+00        0.0000E+00
        6.1721E-03        0.0000E+00        3.9140E+00        0.0000E+00
        6.1730E-03        0.0000E+00        4.0440E+00        0.0000E+00
        6.1947E-03        0.0000E+00        3.7010E+00        0.0000E+00
        6.1952E-03        0.0000E+00        3.7760E+00        0.0000E+00
        6.2032E-03        0.0000E+00        4.0610E+00        0.0000E+00
        6.2078E-03        0.0000E+00        3.8640E+00        0.0000E+00
        6.2147E-03        0.0000E+00        3.9850E+00        0.0000E+00
        6.2227E-03        0.0000E+00        4.2780E+00        0.0000E+00
        6.2351E-03        0.0000E+00        4.3370E+00        0.0000E+00
        6.2449E-03        0.0000E+00        4.0060E+00        0.0000E+00
        6.2464E-03        0.0000E+00        4.2320E+00        0.0000E+00
        6.2517E-03        0.0000E+00        4.1190E+00        0.0000E+00
        6.2635E-03        0.0000E+00        4.0940E+00        0.0000E+00
        6.2763E-03        0.0000E+00        4.2030E+00        0.0000E+00
        6.2820E-03        0.0000E+00        4.1570E+00        0.0000E+00
        6.2900E-03        0.0000E+00        4.4410E+00        0.0000E+00
        6.2913E-03        0.0000E+00        4.6380E+00        0.0000E+00
        6.3115E-03        0.0000E+00        4.0730E+00        0.0000E+00
        6.3128E-03        0.0000E+00        4.2610E+00        0.0000E+00
        6.3255E-03        0.0000E+00        4.3580E+00        0.0000E+00
        6.3360E-03        0.0000E+00        4.1480E+00        0.0000E+00
        6.3422E-03        0.0000E+00        4.1730E+00        0.0000E+00
        6.3463E-03        0.0000E+00        3.8930E+00        0.0000E+00
        6.3476E-03        0.0000E+00        4.0850E+00        0.0000E+00
        6.3598E-03        0.0000E+00        4.1060E+00        0.0000E+00
        6.3715E-03        0.0000E+00        4.0640E+00        0.0000E+00
        6.3755E-03        0.0000E+00        3.7670E+00        0.0000E+00
        6.3814E-03        0.0000E+00        3.7420E+00        0.0000E+00
        6.3823E-03        0.0000E+00        3.8760E+00        0.0000E+00
        6.3951E-03        0.0000E+00        3.9930E+00        0.0000E+00
        6.4073E-03        0.0000E+00        4.0180E+00        0.0000E+00
        6.4086E-03        0.0000E+00        4.2110E+00        0.0000E+00
        6.4297E-03        0.0000E+00        3.7800E+00        0.0000E+00
        6.4299E-03        0.0000E+00        3.8090E+00        0.0000E+00
        6.4310E-03        0.0000E+00        3.9640E+00        0.0000E+00
        6.4413E-03        0.0000E+00        3.7210E+00        0.0000E+00
        6.4545E-03        0.0000E+00        3.8930E+00        0.0000E+00
        6.4656E-03        0.0000E+00        3.7500E+00        0.0000E+00
        6.4681E-03        0.0000E+00        4.1100E+00        0.0000E+00
        6.4747E-03        0.0000E+00        4.2060E+00        0.0000E+00
        6.4859E-03        0.0000E+00        4.0770E+00        0.0000E+00
        6.4912E-03        0.0000E+00        3.9850E+00        0.0000E+00
        6.5018E-03        0.0000E+00        3.7750E+00        0.0000E+00
        6.5035E-03        0.0000E+00        4.0140E+00        0.0000E+00
        6.5107E-03        0.0000E+00        4.1900E+00        0.0000E+00
        6.5141E-03        0.0000E+00        3.8130E+00        0.0000E+00
        6.5272E-03        0.0000E+00        3.9680E+00        0.0000E+00
        6.5334E-03        0.0000E+00        3.9890E+00        0.0000E+00
        6.5338E-03        0.0000E+00        4.0560E+00        0.0000E+00
        6.5443E-03        0.0000E+00        3.8250E+00        0.0000E+00
        6.5496E-03        0.0000E+00        3.7210E+00        0.0000E+00
        6.5504E-03        0.0000E+00        3.8420E+00        0.0000E+00
        6.5566E-03        0.0000E+00        3.8670E+00        0.0000E+00
        6.5730E-03        0.0000E+00        3.6290E+00        0.0000E+00
        6.5738E-03        0.0000E+00        3.7460E+00        0.0000E+00
        6.5799E-03        0.0000E+00        3.7630E+00        0.0000E+00
        6.5921E-03        0.0000E+00        3.7790E+00        0.0000E+00
        6.5986E-03        0.0000E+00        3.8630E+00        0.0000E+00
        6.6149E-03        0.0000E+00        3.6080E+00        0.0000E+00
        6.6220E-03        0.0000E+00        3.7580E+00        0.0000E+00
        6.6274E-03        0.0000E+00        3.6740E+00        0.0000E+00
        6.6348E-03        0.0000E+00        3.8790E+00        0.0000E+00
        6.6423E-03        0.0000E+00        4.0970E+00        0.0000E+00
        6.6476E-03        0.0000E+00        3.9880E+00        0.0000E+00
        6.6526E-03        0.0000E+00        3.8460E+00        0.0000E+00
        6.6611E-03        0.0000E+00        4.2020E+00        0.0000E+00
        6.6665E-03        0.0000E+00        4.1100E+00        0.0000E+00
        6.6734E-03        0.0000E+00        4.2390E+00        0.0000E+00
        6.6862E-03        0.0000E+00        4.3520E+00        0.0000E+00
        6.6976E-03        0.0000E+00        4.2600E+00        0.0000E+00
        6.7000E-03        0.0000E+00        3.7450E+00        0.0000E+00
        6.7010E-03        0.0000E+00        3.8830E+00        0.0000E+00
        6.7091E-03        0.0000E+00        4.1890E+00        0.0000E+00
        6.7229E-03        0.0000E+00        3.5700E+00        0.0000E+00
        6.7358E-03        0.0000E+00        3.7030E+00        0.0000E+00
        6.7425E-03        0.0000E+00        3.8040E+00        0.0000E+00
        6.7487E-03        0.0000E+00        3.8330E+00        0.0000E+00
        6.7515E-03        0.0000E+00        4.2350E+00        0.0000E+00
        6.7627E-03        0.0000E+00        4.1130E+00        0.0000E+00
        6.7684E-03        0.0000E+00        4.0670E+00        0.0000E+00
        6.7732E-03        0.0000E+00        3.8960E+00        0.0000E+00
        6.7810E-03        0.0000E+00        4.1550E+00        0.0000E+00
        6.7868E-03        0.0000E+00        4.1260E+00        0.0000E+00
        6.7978E-03        0.0000E+00        3.9750E+00        0.0000E+00
        6.7983E-03        0.0000E+00        4.0420E+00        0.0000E+00
        6.8122E-03        0.0000E+00        4.3180E+00        0.0000E+00
        6.8185E-03        0.0000E+00        4.3640E+00        0.0000E+00
        6.8203E-03        0.0000E+00        4.6240E+00        0.0000E+00
        6.8268E-03        0.0000E+00        4.6910E+00        0.0000E+00
        6.8375E-03        0.0000E+00        4.5020E+00        0.0000E+00
        6.8484E-03        0.0000E+00        4.3310E+00        0.0000E+00
        6.8606E-03        0.0000E+00        4.3560E+00        0.0000E+00
        6.8655E-03        0.0000E+00        4.2050E+00        0.0000E+00
        6.8660E-03        0.0000E+00        4.2760E+00        0.0000E+00
        6.8767E-03        0.0000E+00        4.0840E+00        0.0000E+00
        6.8773E-03        0.0000E+00        4.1630E+00        0.0000E+00
        6.8880E-03        0.0000E+00        3.9750E+00        0.0000E+00
        6.8952E-03        0.0000E+00        4.1420E+00        0.0000E+00
        6.9038E-03        0.0000E+00        4.5190E+00        0.0000E+00
        6.9057E-03        0.0000E+00        4.7950E+00        0.0000E+00
        6.9164E-03        0.0000E+00        4.6020E+00        0.0000E+00
        6.9253E-03        0.0000E+00        5.0250E+00        0.0000E+00
        6.9348E-03        0.0000E+00        4.6530E+00        0.0000E+00
        6.9394E-03        0.0000E+00        4.4600E+00        0.0000E+00
        6.9464E-03        0.0000E+00        4.5940E+00        0.0000E+00
        6.9568E-03        0.0000E+00        4.3600E+00        0.0000E+00
        6.9852E-03        0.0000E+00        4.1250E+00        0.0000E+00
        6.9859E-03        0.0000E+00        4.2260E+00        0.0000E+00
        6.9923E-03        0.0000E+00        4.2760E+00        0.0000E+00
        6.9970E-03        0.0000E+00        4.0830E+00        0.0000E+00
        7.0203E-03        0.0000E+00        3.9700E+00        0.0000E+00
        7.0260E-03        0.0000E+00        3.9370E+00        0.0000E+00
        7.0307E-03        0.0000E+00        3.7440E+00        0.0000E+00
        7.0317E-03        0.0000E+00        3.8910E+00        0.0000E+00
        7.0366E-03        0.0000E+00        3.7190E+00        0.0000E+00
        7.0529E-03        0.0000E+00        3.4760E+00        0.0000E+00
        7.0668E-03        0.0000E+00        3.7400E+00        0.0000E+00
        7.0684E-03        0.0000E+00        3.9740E+00        0.0000E+00
        7.0766E-03        0.0000E+00        4.2920E+00        0.0000E+00
        7.0821E-03        0.0000E+00        4.2210E+00        0.0000E+00
        7.1037E-03        0.0000E+00        3.8610E+00        0.0000E+00
        7.1092E-03        0.0000E+00        3.7900E+00        0.0000E+00
        7.1210E-03        0.0000E+00        3.7610E+00        0.0000E+00
        7.1225E-03        0.0000E+00        3.9740E+00        0.0000E+00
        7.1333E-03        0.0000E+00        3.7900E+00        0.0000E+00
        7.1532E-03        0.0000E+00        4.0620E+00        0.0000E+00
        7.1588E-03        0.0000E+00        4.0120E+00        0.0000E+00
        7.1763E-03        0.0000E+00        3.9280E+00        0.0000E+00
        7.1765E-03        0.0000E+00        3.9570E+00        0.0000E+00
        7.1876E-03        0.0000E+00        3.8230E+00        0.0000E+00
        7.2036E-03        0.0000E+00        3.5260E+00        0.0000E+00
        7.2109E-03        0.0000E+00        3.7190E+00        0.0000E+00
        7.2314E-03        0.0000E+00        4.0660E+00        0.0000E+00
        7.2379E-03        0.0000E+00        4.1450E+00        0.0000E+00
        7.2409E-03        0.0000E+00        4.5760E+00        0.0000E+00
        7.2410E-03        0.0000E+00        4.6010E+00        0.0000E+00
        7.2546E-03        0.0000E+00        4.8230E+00        0.0000E+00
        7.2569E-03        0.0000E+00        4.2870E+00        0.0000E+00
        7.2731E-03        0.0000E+00        4.8860E+00        0.0000E+00
        7.2766E-03        0.0000E+00        4.5300E+00        0.0000E+00
        7.2837E-03        0.0000E+00        4.6890E+00        0.0000E+00
        7.3023E-03        0.0000E+00        3.8940E+00        0.0000E+00
        7.3042E-03        0.0000E+00        4.1740E+00        0.0000E+00
        7.3187E-03        0.0000E+00        3.6470E+00        0.0000E+00
        7.3387E-03        0.0000E+00        3.9400E+00        0.0000E+00
        7.3452E-03        0.0000E+00        4.0070E+00        0.0000E+00
        7.3485E-03        0.0000E+00        3.6180E+00        0.0000E+00
        7.3575E-03        0.0000E+00        4.0490E+00        0.0000E+00
        7.3656E-03        0.0000E+00        4.3580E+00        0.0000E+00
        7.3719E-03        0.0000E+00        4.3920E+00        0.0000E+00
        7.3760E-03        0.0000E+00        4.1160E+00        0.0000E+00
        7.3904E-03        0.0000E+00        4.4590E+00        0.0000E+00
        7.3943E-03        0.0000E+00        4.1490E+00        0.0000E+00
        7.4115E-03        0.0000E+00        4.0360E+00        0.0000E+00
        7.4172E-03        0.0000E+00        3.9940E+00        0.0000E+00
        7.4193E-03        0.0000E+00        4.2870E+00        0.0000E+00
        7.4396E-03        0.0000E+00        3.7470E+00        0.0000E+00
        7.4420E-03        0.0000E+00        4.0990E+00        0.0000E+00
        7.4450E-03        0.0000E+00        3.6590E+00        0.0000E+00
        7.4692E-03        0.0000E+00        3.6800E+00        0.0000E+00
        7.4940E-03        0.0000E+00        3.7890E+00        0.0000E+00
        7.5011E-03        0.0000E+00        3.9520E+00        0.0000E+00
        7.5029E-03        0.0000E+00        4.2160E+00        0.0000E+00
        7.5073E-03        0.0000E+00        3.9690E+00        0.0000E+00
        7.5122E-03        0.0000E+00        3.8050E+00        0.0000E+00
        7.5199E-03        0.0000E+00        4.0650E+00        0.0000E+00
        7.5433E-03        0.0000E+00        3.9600E+00        0.0000E+00
        7.5546E-03        0.0000E+00        3.8640E+00        0.0000E+00
        7.5720E-03        0.0000E+00        3.7630E+00        0.0000E+00
        7.5891E-03        0.0000E+00        3.6290E+00        0.0000E+00
        7.5946E-03        0.0000E+00        3.5540E+00        0.0000E+00
        7.6064E-03        0.0000E+00        3.5160E+00        0.0000E+00
        7.6243E-03        0.0000E+00        3.4950E+00        0.0000E+00
        7.6324E-03        0.0000E+00        3.8090E+00        0.0000E+00
        7.6340E-03        0.0000E+00        4.0350E+00        0.0000E+00
        7.6532E-03        0.0000E+00        4.2070E+00        0.0000E+00
        7.6659E-03        0.0000E+00        4.2990E+00        0.0000E+00
        7.6712E-03        0.0000E+00        4.2070E+00        0.0000E+00
        7.6797E-03        0.0000E+00        3.6840E+00        0.0000E+00
        7.6865E-03        0.0000E+00        3.8010E+00        0.0000E+00
        7.6982E-03        0.0000E+00        3.7550E+00        0.0000E+00
        7.7114E-03        0.0000E+00        3.9220E+00        0.0000E+00
        7.7164E-03        0.0000E+00        3.7800E+00        0.0000E+00
        7.7251E-03        0.0000E+00        4.1650E+00        0.0000E+00
        7.7374E-03        0.0000E+00        4.2110E+00        0.0000E+00
        7.7440E-03        0.0000E+00        4.2900E+00        0.0000E+00
        7.7534E-03        0.0000E+00        3.9090E+00        0.0000E+00
        7.7547E-03        0.0000E+00        4.1060E+00        0.0000E+00
        7.7768E-03        0.0000E+00        3.8250E+00        0.0000E+00
        7.7817E-03        0.0000E+00        3.6580E+00        0.0000E+00
        7.7881E-03        0.0000E+00        3.7170E+00        0.0000E+00
        7.8005E-03        0.0000E+00        3.7670E+00        0.0000E+00
        7.8196E-03        0.0000E+00        3.9170E+00        0.0000E+00
        7.8205E-03        0.0000E+00        4.0470E+00        0.0000E+00
        7.8418E-03        0.0000E+00        3.6580E+00        0.0000E+00
        7.8474E-03        0.0000E+00        3.5950E+00        0.0000E+00
        7.8524E-03        0.0000E+00        3.4400E+00        0.0000E+00
        7.8600E-03        0.0000E+00        3.6750E+00        0.0000E+00
        7.8731E-03        0.0000E+00        3.8290E+00        0.0000E+00
        7.8839E-03        0.0000E+00        3.6580E+00        0.0000E+00
        7.8902E-03        0.0000E+00        3.6910E+00        0.0000E+00
        7.8969E-03        0.0000E+00        3.8040E+00        0.0000E+00
        7.9149E-03        0.0000E+00        3.7870E+00        0.0000E+00
        7.9278E-03        0.0000E+00        3.9210E+00        0.0000E+00
        7.9289E-03        0.0000E+00        4.0840E+00        0.0000E+00
        7.9405E-03        0.0000E+00        4.0170E+00        0.0000E+00
        7.9467E-03        0.0000E+00        4.0420E+00        0.0000E+00
        7.9532E-03        0.0000E+00        4.1140E+00        0.0000E+00
        7.9643E-03        0.0000E+00        3.9800E+00        0.0000E+00
        7.9820E-03        0.0000E+00        3.9250E+00        0.0000E+00
        7.9869E-03        0.0000E+00        3.7660E+00        0.0000E+00
        7.9878E-03        0.0000E+00        3.9000E+00        0.0000E+00
        7.9983E-03        0.0000E+00        3.6740E+00        0.0000E+00
        8.0091E-03        0.0000E+00        3.5030E+00        0.0000E+00
        8.0105E-03        0.0000E+00        3.7030E+00        0.0000E+00
        8.0277E-03        0.0000E+00        3.5780E+00        0.0000E+00
        8.0394E-03        0.0000E+00        3.5360E+00        0.0000E+00
        8.0516E-03        0.0000E+00        3.5610E+00        0.0000E+00
        8.0585E-03        0.0000E+00        3.6910E+00        0.0000E+00
        8.0644E-03        0.0000E+00        3.6700E+00        0.0000E+00
        8.0817E-03        0.0000E+00        3.5650E+00        0.0000E+00
        8.0820E-03        0.0000E+00        3.6110E+00        0.0000E+00
        8.0826E-03        0.0000E+00        3.6990E+00        0.0000E+00
        8.1003E-03        0.0000E+00        3.6490E+00        0.0000E+00
        8.1069E-03        0.0000E+00        3.7370E+00        0.0000E+00
        8.1223E-03        0.0000E+00        3.3520E+00        0.0000E+00
        8.1248E-03        0.0000E+00        3.7110E+00        0.0000E+00
        8.1286E-03        0.0000E+00        3.3890E+00        0.0000E+00
        8.1430E-03        0.0000E+00        3.7360E+00        0.0000E+00
        8.1474E-03        0.0000E+00        3.5060E+00        0.0000E+00
        8.1607E-03        0.0000E+00        3.6940E+00        0.0000E+00
        8.1789E-03        0.0000E+00        3.7150E+00        0.0000E+00
        8.1841E-03        0.0000E+00        3.5940E+00        0.0000E+00
        8.2037E-03        0.0000E+00        3.8240E+00        0.0000E+00
        8.2103E-03        0.0000E+00        3.9040E+00        0.0000E+00
        8.2215E-03        0.0000E+00        3.7860E+00        0.0000E+00
        8.2220E-03        0.0000E+00        3.8660E+00        0.0000E+00
        8.2346E-03        0.0000E+00        3.9450E+00        0.0000E+00
        8.2402E-03        0.0000E+00        3.8870E+00        0.0000E+00
        8.2518E-03        0.0000E+00        3.8240E+00        0.0000E+00
        8.2637E-03        0.0000E+00        3.7990E+00        0.0000E+00
        8.2704E-03        0.0000E+00        3.8990E+00        0.0000E+00
        8.2830E-03        0.0000E+00        3.9830E+00        0.0000E+00
        8.2843E-03        0.0000E+00        4.1750E+00        0.0000E+00
        8.3011E-03        0.0000E+00        3.9950E+00        0.0000E+00
        8.3080E-03        0.0000E+00        4.1250E+00        0.0000E+00
        8.3201E-03        0.0000E+00        4.1370E+00        0.0000E+00
        8.3326E-03        0.0000E+00        4.2000E+00        0.0000E+00
        8.3442E-03        0.0000E+00        4.1460E+00        0.0000E+00
        8.3555E-03        0.0000E+00        4.0330E+00        0.0000E+00
        8.3620E-03        0.0000E+00        4.1120E+00        0.0000E+00
        8.3670E-03        0.0000E+00        3.9660E+00        0.0000E+00
        8.3725E-03        0.0000E+00        3.8900E+00        0.0000E+00
        8.3891E-03        0.0000E+00        3.6730E+00        0.0000E+00
        8.3952E-03        0.0000E+00        3.6940E+00        0.0000E+00
        8.4139E-03        0.0000E+00        3.7820E+00        0.0000E+00
        8.4320E-03        0.0000E+00        3.7900E+00        0.0000E+00
        8.4375E-03        0.0000E+00        3.7140E+00        0.0000E+00
        8.4460E-03        0.0000E+00        4.0830E+00        0.0000E+00
        8.4637E-03        0.0000E+00        4.0320E+00        0.0000E+00
        8.4767E-03        0.0000E+00        4.1790E+00        0.0000E+00
        8.4823E-03        0.0000E+00        4.1200E+00        0.0000E+00
        8.4887E-03        0.0000E+00        4.1660E+00        0.0000E+00
        8.5008E-03        0.0000E+00        4.1830E+00        0.0000E+00
        8.5016E-03        0.0000E+00        4.2960E+00        0.0000E+00
        8.5240E-03        0.0000E+00        4.0610E+00        0.0000E+00
        8.5254E-03        0.0000E+00        4.2620E+00        0.0000E+00
        8.5312E-03        0.0000E+00        4.2330E+00        0.0000E+00
        8.5437E-03        0.0000E+00        4.3040E+00        0.0000E+00
        8.5669E-03        0.0000E+00        4.1780E+00        0.0000E+00
        8.5727E-03        0.0000E+00        4.1450E+00        0.0000E+00
        8.5793E-03        0.0000E+00        4.2240E+00        0.0000E+00
        8.5846E-03        0.0000E+00        4.1200E+00        0.0000E+00
        8.6045E-03        0.0000E+00        4.3920E+00        0.0000E+00
        8.6149E-03        0.0000E+00        4.1620E+00        0.0000E+00
        8.6278E-03        0.0000E+00        4.2870E+00        0.0000E+00
        8.6331E-03        0.0000E+00        4.1780E+00        0.0000E+00
        8.6447E-03        0.0000E+00        4.1280E+00        0.0000E+00
        8.6506E-03        0.0000E+00        4.1030E+00        0.0000E+00
        8.6560E-03        0.0000E+00        4.0230E+00        0.0000E+00
        8.6791E-03        0.0000E+00        3.8730E+00        0.0000E+00
        8.6859E-03        0.0000E+00        3.9940E+00        0.0000E+00
        8.6990E-03        0.0000E+00        4.1450E+00        0.0000E+00
        8.7155E-03        0.0000E+00        3.9310E+00        0.0000E+00
        8.7258E-03        0.0000E+00        3.6800E+00        0.0000E+00
        8.7313E-03        0.0000E+00        3.5960E+00        0.0000E+00
        8.7482E-03        0.0000E+00        3.4410E+00        0.0000E+00
        8.7545E-03        0.0000E+00        3.4790E+00        0.0000E+00
        8.7669E-03        0.0000E+00        3.5290E+00        0.0000E+00
        8.7722E-03        0.0000E+00        3.4250E+00        0.0000E+00
        8.7955E-03        0.0000E+00        3.3240E+00        0.0000E+00
        8.8078E-03        0.0000E+00        3.3660E+00        0.0000E+00
        8.8252E-03        0.0000E+00        3.2610E+00        0.0000E+00
        8.8265E-03        0.0000E+00        3.4500E+00        0.0000E+00
        8.8374E-03        0.0000E+00        3.2990E+00        0.0000E+00
        8.8436E-03        0.0000E+00        3.3160E+00        0.0000E+00
        8.8677E-03        0.0000E+00        3.3280E+00        0.0000E+00
        8.8802E-03        0.0000E+00        3.3910E+00        0.0000E+00
        8.8820E-03        0.0000E+00        3.6590E+00        0.0000E+00
        8.9130E-03        0.0000E+00        3.8010E+00        0.0000E+00
        8.9188E-03        0.0000E+00        3.7670E+00        0.0000E+00
        8.9193E-03        0.0000E+00        3.8380E+00        0.0000E+00
        8.9319E-03        0.0000E+00        3.9220E+00        0.0000E+00
        8.9448E-03        0.0000E+00        4.0520E+00        0.0000E+00
        8.9702E-03        0.0000E+00        4.2440E+00        0.0000E+00
        8.9834E-03        0.0000E+00        4.4200E+00        0.0000E+00
        9.0058E-03        0.0000E+00        4.1730E+00        0.0000E+00
        9.0243E-03        0.0000E+00        4.2440E+00        0.0000E+00
        9.0307E-03        0.0000E+00        4.3020E+00        0.0000E+00
        9.0425E-03        0.0000E+00        4.2650E+00        0.0000E+00
        9.0517E-03        0.0000E+00        3.8510E+00        0.0000E+00
        9.0661E-03        0.0000E+00        4.1940E+00        0.0000E+00
        9.0821E-03        0.0000E+00        3.9010E+00        0.0000E+00
        9.0894E-03        0.0000E+00        4.0850E+00        0.0000E+00
        9.1019E-03        0.0000E+00        4.1640E+00        0.0000E+00
        9.1181E-03        0.0000E+00        3.8920E+00        0.0000E+00
        9.1186E-03        0.0000E+00        3.9720E+00        0.0000E+00
        9.1353E-03        0.0000E+00        3.7710E+00        0.0000E+00
        9.1523E-03        0.0000E+00        3.6160E+00        0.0000E+00
        9.1711E-03        0.0000E+00        3.7330E+00        0.0000E+00
        9.1775E-03        0.0000E+00        3.7790E+00        0.0000E+00
        9.1899E-03        0.0000E+00        3.8380E+00        0.0000E+00
        9.2085E-03        0.0000E+00        3.9290E+00        0.0000E+00
        9.2150E-03        0.0000E+00        3.9960E+00        0.0000E+00
        9.2325E-03        0.0000E+00        3.9080E+00        0.0000E+00
        9.2513E-03        0.0000E+00        4.0260E+00        0.0000E+00
        9.2655E-03        0.0000E+00        4.3390E+00        0.0000E+00
        9.2702E-03        0.0000E+00        4.1470E+00        0.0000E+00
        9.2712E-03        0.0000E+00        4.2930E+00        0.0000E+00
        9.2945E-03        0.0000E+00        4.1840E+00        0.0000E+00
        9.3074E-03        0.0000E+00        4.3180E+00        0.0000E+00
        9.3129E-03        0.0000E+00        4.2390E+00        0.0000E+00
        9.3304E-03        0.0000E+00        4.1680E+00        0.0000E+00
        9.3361E-03        0.0000E+00        4.1220E+00        0.0000E+00
        9.3540E-03        0.0000E+00        4.1010E+00        0.0000E+00
        9.3585E-03        0.0000E+00        3.8700E+00        0.0000E+00
        9.3826E-03        0.0000E+00        3.8870E+00        0.0000E+00
        9.3831E-03        0.0000E+00        3.9500E+00        0.0000E+00
        9.4167E-03        0.0000E+00        3.5980E+00        0.0000E+00
        9.4179E-03        0.0000E+00        3.7740E+00        0.0000E+00
        9.4302E-03        0.0000E+00        3.8070E+00        0.0000E+00
        9.4409E-03        0.0000E+00        3.6190E+00        0.0000E+00
        9.4484E-03        0.0000E+00        3.8280E+00        0.0000E+00
        9.4674E-03        0.0000E+00        3.9750E+00        0.0000E+00
        9.4781E-03        0.0000E+00        3.7860E+00        0.0000E+00
        9.4965E-03        0.0000E+00        3.8280E+00        0.0000E+00
        9.5026E-03        0.0000E+00        3.8450E+00        0.0000E+00
        9.5154E-03        0.0000E+00        3.9660E+00        0.0000E+00
        9.5269E-03        0.0000E+00        3.8820E+00        0.0000E+00
        9.5312E-03        0.0000E+00        3.6400E+00        0.0000E+00
        9.5498E-03        0.0000E+00        3.7190E+00        0.0000E+00
        9.5794E-03        0.0000E+00        3.6440E+00        0.0000E+00
        9.5797E-03        0.0000E+00        3.6940E+00        0.0000E+00
        9.5866E-03        0.0000E+00        3.8190E+00        0.0000E+00
        9.6056E-03        0.0000E+00        3.9620E+00        0.0000E+00
        9.6189E-03        0.0000E+00        4.1420E+00        0.0000E+00
        9.6352E-03        0.0000E+00        3.8950E+00        0.0000E+00
        9.6417E-03        0.0000E+00        3.9620E+00        0.0000E+00
        9.6481E-03        0.0000E+00        4.0240E+00        0.0000E+00
        9.6830E-03        0.0000E+00        3.8440E+00        0.0000E+00
        9.6895E-03        0.0000E+00        3.9150E+00        0.0000E+00
        9.7064E-03        0.0000E+00        3.7560E+00        0.0000E+00
        9.7183E-03        0.0000E+00        3.7310E+00        0.0000E+00
        9.7372E-03        0.0000E+00        3.8650E+00        0.0000E+00
        9.7424E-03        0.0000E+00        3.7520E+00        0.0000E+00
        9.7560E-03        0.0000E+00        3.9740E+00        0.0000E+00
        9.7623E-03        0.0000E+00        4.0110E+00        0.0000E+00
        9.7790E-03        0.0000E+00        3.8150E+00        0.0000E+00
        9.7921E-03        0.0000E+00        3.9780E+00        0.0000E+00
        9.8053E-03        0.0000E+00        4.1530E+00        0.0000E+00
        9.8159E-03        0.0000E+00        3.9480E+00        0.0000E+00
        9.8274E-03        0.0000E+00        3.8690E+00        0.0000E+00
        9.8423E-03        0.0000E+00        3.4090E+00        0.0000E+00
        9.8448E-03        0.0000E+00        3.7680E+00        0.0000E+00
        9.8738E-03        0.0000E+00        3.6180E+00        0.0000E+00
        9.8786E-03        0.0000E+00        3.4460E+00        0.0000E+00
        9.8908E-03        0.0000E+00        3.4630E+00        0.0000E+00
        9.9033E-03        0.0000E+00        3.5300E+00        0.0000E+00
        9.9162E-03        0.0000E+00        3.6590E+00        0.0000E+00
        9.9336E-03        0.0000E+00        3.5760E+00        0.0000E+00
        9.9340E-03        0.0000E+00        3.6260E+00        0.0000E+00
        9.9591E-03        0.0000E+00        3.7850E+00        0.0000E+00
        9.9675E-03        0.0000E+00        4.1320E+00        0.0000E+00
        9.9848E-03        0.0000E+00        4.0150E+00        0.0000E+00
        1.0008E-02        0.0000E+00        3.9640E+00        0.0000E+00
        1.0019E-02        0.0000E+00        3.7390E+00        0.0000E+00
        1.0020E-02        0.0000E+00        3.9310E+00        0.0000E+00
        1.0050E-02        0.0000E+00        3.8180E+00        0.0000E+00
        1.0060E-02        0.0000E+00        3.6550E+00        0.0000E+00
        1.0072E-02        0.0000E+00        3.5330E+00        0.0000E+00
        1.0085E-02        0.0000E+00        3.7220E+00        0.0000E+00
        1.0114E-02        0.0000E+00        3.6340E+00        0.0000E+00
        1.0121E-02        0.0000E+00        3.7420E+00        0.0000E+00
        1.0143E-02        0.0000E+00        3.4450E+00        0.0000E+00
        1.0145E-02        0.0000E+00        3.7000E+00        0.0000E+00
        1.0168E-02        0.0000E+00        3.5920E+00        0.0000E+00
        1.0199E-02        0.0000E+00        3.6460E+00        0.0000E+00
        1.0203E-02        0.0000E+00        3.4120E+00        0.0000E+00
        1.0204E-02        0.0000E+00        3.5290E+00        0.0000E+00
        1.0222E-02        0.0000E+00        3.5910E+00        0.0000E+00
        1.0242E-02        0.0000E+00        3.7750E+00        0.0000E+00
        1.0257E-02        0.0000E+00        3.3780E+00        0.0000E+00
        1.0258E-02        0.0000E+00        3.5160E+00        0.0000E+00
        1.0283E-02        0.0000E+00        3.6330E+00        0.0000E+00
        1.0294E-02        0.0000E+00        3.4780E+00        0.0000E+00
        1.0313E-02        0.0000E+00        3.6120E+00        0.0000E+00
        1.0325E-02        0.0000E+00        3.6330E+00        0.0000E+00
        1.0356E-02        0.0000E+00        3.7210E+00        0.0000E+00
        1.0360E-02        0.0000E+00        3.4650E+00        0.0000E+00
        1.0366E-02        0.0000E+00        3.4320E+00        0.0000E+00
        1.0378E-02        0.0000E+00        3.4950E+00        0.0000E+00
        1.0404E-02        0.0000E+00        3.7290E+00        0.0000E+00
        1.0409E-02        0.0000E+00        3.6870E+00        0.0000E+00
        1.0427E-02        0.0000E+00        3.5530E+00        0.0000E+00
        1.0434E-02        0.0000E+00        3.7250E+00        0.0000E+00
        1.0463E-02        0.0000E+00        3.6490E+00        0.0000E+00
        1.0468E-02        0.0000E+00        3.5360E+00        0.0000E+00
        1.0480E-02        0.0000E+00        3.5150E+00        0.0000E+00
        1.0506E-02        0.0000E+00        3.7410E+00        0.0000E+00
        1.0512E-02        0.0000E+00        3.7580E+00        0.0000E+00
        1.0524E-02        0.0000E+00        3.8120E+00        0.0000E+00
        1.0530E-02        0.0000E+00        3.7740E+00        0.0000E+00
        1.0561E-02        0.0000E+00        3.8410E+00        0.0000E+00
        1.0566E-02        0.0000E+00        3.7450E+00        0.0000E+00
        1.0578E-02        0.0000E+00        3.7070E+00        0.0000E+00
        1.0626E-02        0.0000E+00        3.6530E+00        0.0000E+00
        1.0631E-02        0.0000E+00        3.6110E+00        0.0000E+00
        1.0661E-02        0.0000E+00        3.5650E+00        0.0000E+00
        1.0668E-02        0.0000E+00        3.6480E+00        0.0000E+00
        1.0679E-02        0.0000E+00        3.6070E+00        0.0000E+00
        1.0686E-02        0.0000E+00        3.7030E+00        0.0000E+00
        1.0702E-02        0.0000E+00        3.4390E+00        0.0000E+00
        1.0727E-02        0.0000E+00        3.5440E+00        0.0000E+00
        1.0739E-02        0.0000E+00        3.5980E+00        0.0000E+00
        1.0752E-02        0.0000E+00        3.6520E+00        0.0000E+00
        1.0757E-02        0.0000E+00        3.5230E+00        0.0000E+00
        1.0775E-02        0.0000E+00        3.5690E+00        0.0000E+00
        1.0788E-02        0.0000E+00        3.6400E+00        0.0000E+00
        1.0804E-02        0.0000E+00        3.3430E+00        0.0000E+00
        1.0817E-02        0.0000E+00        3.5140E+00        0.0000E+00
        1.0837E-02        0.0000E+00        3.7320E+00        0.0000E+00
        1.0854E-02        0.0000E+00        3.5680E+00        0.0000E+00
        1.0855E-02        0.0000E+00        3.7150E+00        0.0000E+00
        1.0879E-02        0.0000E+00        3.7310E+00        0.0000E+00
        1.0902E-02        0.0000E+00        3.5850E+00        0.0000E+00
        1.0910E-02        0.0000E+00        3.9700E+00        0.0000E+00
        1.0933E-02        0.0000E+00        3.7350E+00        0.0000E+00
        1.0933E-02        0.0000E+00        3.8110E+00        0.0000E+00
        1.0951E-02        0.0000E+00        3.7610E+00        0.0000E+00
        1.0958E-02        0.0000E+00        3.8780E+00        0.0000E+00
        1.0980E-02        0.0000E+00        3.5720E+00        0.0000E+00
        1.0993E-02        0.0000E+00        3.6980E+00        0.0000E+00
        1.1022E-02        0.0000E+00        3.5640E+00        0.0000E+00
        1.1047E-02        0.0000E+00        3.7180E+00        0.0000E+00
        1.1052E-02        0.0000E+00        3.6430E+00        0.0000E+00
        1.1095E-02        0.0000E+00        3.6810E+00        0.0000E+00
        1.1113E-02        0.0000E+00        3.7260E+00        0.0000E+00
        1.1125E-02        0.0000E+00        3.7600E+00        0.0000E+00
        1.1156E-02        0.0000E+00        3.8100E+00        0.0000E+00
        1.1173E-02        0.0000E+00        3.7350E+00        0.0000E+00
        1.1198E-02        0.0000E+00        3.8520E+00        0.0000E+00
        1.1221E-02        0.0000E+00        3.6720E+00        0.0000E+00
        1.1237E-02        0.0000E+00        3.4120E+00        0.0000E+00
        1.1238E-02        0.0000E+00        3.4830E+00        0.0000E+00
        1.1262E-02        0.0000E+00        3.5840E+00        0.0000E+00
        1.1275E-02        0.0000E+00        3.6800E+00        0.0000E+00
        1.1293E-02        0.0000E+00        3.7220E+00        0.0000E+00
        1.1317E-02        0.0000E+00        3.6760E+00        0.0000E+00
        1.1329E-02        0.0000E+00        3.5710E+00        0.0000E+00
        1.1341E-02        0.0000E+00        3.5960E+00        0.0000E+00
        1.1352E-02        0.0000E+00        3.5540E+00        0.0000E+00
        1.1376E-02        0.0000E+00        3.5250E+00        0.0000E+00
        1.1383E-02        0.0000E+00        3.6250E+00        0.0000E+00
        1.1401E-02        0.0000E+00        3.5580E+00        0.0000E+00
        1.1412E-02        0.0000E+00        3.4410E+00        0.0000E+00
        1.1448E-02        0.0000E+00        3.4700E+00        0.0000E+00
        1.1452E-02        0.0000E+00        3.2360E+00        0.0000E+00
        1.1489E-02        0.0000E+00        3.3320E+00        0.0000E+00
        1.1500E-02        0.0000E+00        3.2190E+00        0.0000E+00
        1.1513E-02        0.0000E+00        3.2940E+00        0.0000E+00
        1.1524E-02        0.0000E+00        3.1480E+00        0.0000E+00
        1.1556E-02        0.0000E+00        3.3900E+00        0.0000E+00
        1.1562E-02        0.0000E+00        3.4240E+00        0.0000E+00
        1.1579E-02        0.0000E+00        3.2730E+00        0.0000E+00
        1.1603E-02        0.0000E+00        3.3020E+00        0.0000E+00
        1.1616E-02        0.0000E+00        3.4440E+00        0.0000E+00
        1.1629E-02        0.0000E+00        3.5280E+00        0.0000E+00
        1.1654E-02        0.0000E+00        3.7210E+00        0.0000E+00
        1.1679E-02        0.0000E+00        3.8330E+00        0.0000E+00
        1.1690E-02        0.0000E+00        3.7370E+00        0.0000E+00
        1.1726E-02        0.0000E+00        3.6620E+00        0.0000E+00
        1.1750E-02        0.0000E+00        3.6410E+00        0.0000E+00
        1.1755E-02        0.0000E+00        3.5400E+00        0.0000E+00
        1.1772E-02        0.0000E+00        3.4020E+00        0.0000E+00
        1.1791E-02        0.0000E+00        3.4400E+00        0.0000E+00
        1.1803E-02        0.0000E+00        3.5690E+00        0.0000E+00
        1.1828E-02        0.0000E+00        3.6200E+00        0.0000E+00
        1.1851E-02        0.0000E+00        3.5440E+00        0.0000E+00
        1.1869E-02        0.0000E+00        3.5270E+00        0.0000E+00
        1.1888E-02        0.0000E+00        3.5650E+00        0.0000E+00
        1.1913E-02        0.0000E+00        3.7280E+00        0.0000E+00
        1.1930E-02        0.0000E+00        3.5770E+00        0.0000E+00
        1.1948E-02        0.0000E+00        3.6190E+00        0.0000E+00
        1.1960E-02        0.0000E+00        3.6650E+00        0.0000E+00
        1.1990E-02        0.0000E+00        3.6520E+00        0.0000E+00
        1.2013E-02        0.0000E+00        3.4810E+00        0.0000E+00
        1.2025E-02        0.0000E+00        3.5020E+00        0.0000E+00
        1.2044E-02        0.0000E+00        3.5600E+00        0.0000E+00
        1.2067E-02        0.0000E+00        3.4430E+00        0.0000E+00
        1.2091E-02        0.0000E+00        3.3380E+00        0.0000E+00
        1.2097E-02        0.0000E+00        3.3840E+00        0.0000E+00
        1.2114E-02        0.0000E+00        3.2880E+00        0.0000E+00
        1.2145E-02        0.0000E+00        3.3460E+00        0.0000E+00
        1.2157E-02        0.0000E+00        3.3840E+00        0.0000E+00
        1.2180E-02        0.0000E+00        3.2670E+00        0.0000E+00
        1.2193E-02        0.0000E+00        3.3380E+00        0.0000E+00
        1.2222E-02        0.0000E+00        3.2500E+00        0.0000E+00
        1.2246E-02        0.0000E+00        3.1910E+00        0.0000E+00
        1.2247E-02        0.0000E+00        3.3840E+00        0.0000E+00
        1.2271E-02        0.0000E+00        3.3080E+00        0.0000E+00
        1.2288E-02        0.0000E+00        3.1740E+00        0.0000E+00
        1.2307E-02        0.0000E+00        3.3750E+00        0.0000E+00
        1.2325E-02        0.0000E+00        3.3500E+00        0.0000E+00
        1.2342E-02        0.0000E+00        3.2370E+00        0.0000E+00
        1.2343E-02        0.0000E+00        3.2790E+00        0.0000E+00
        1.2367E-02        0.0000E+00        3.2580E+00        0.0000E+00
        1.2398E-02        0.0000E+00        3.4630E+00        0.0000E+00
        1.2403E-02        0.0000E+00        3.3250E+00        0.0000E+00
        1.2426E-02        0.0000E+00        3.2200E+00        0.0000E+00
        1.2434E-02        0.0000E+00        3.4710E+00        0.0000E+00
        1.2475E-02        0.0000E+00        3.3080E+00        0.0000E+00
        1.2476E-02        0.0000E+00        3.3790E+00        0.0000E+00
        1.2493E-02        0.0000E+00        3.2780E+00        0.0000E+00
        1.2512E-02        0.0000E+00        3.4040E+00        0.0000E+00
        1.2535E-02        0.0000E+00        3.2740E+00        0.0000E+00
        1.2546E-02        0.0000E+00        3.1570E+00        0.0000E+00
        1.2565E-02        0.0000E+00        3.3370E+00        0.0000E+00
        1.2590E-02        0.0000E+00        3.3620E+00        0.0000E+00
        1.2602E-02        0.0000E+00        3.3280E+00        0.0000E+00
        1.2625E-02        0.0000E+00        3.2740E+00        0.0000E+00
        1.2638E-02        0.0000E+00        3.3280E+00        0.0000E+00
        1.2668E-02        0.0000E+00        3.3660E+00        0.0000E+00
        1.2679E-02        0.0000E+00        3.2950E+00        0.0000E+00
        1.2697E-02        0.0000E+00        3.2690E+00        0.0000E+00
        1.2717E-02        0.0000E+00        3.5330E+00        0.0000E+00
        1.2722E-02        0.0000E+00        3.3860E+00        0.0000E+00
        1.2753E-02        0.0000E+00        3.4740E+00        0.0000E+00
        1.2771E-02        0.0000E+00        3.4660E+00        0.0000E+00
        1.2802E-02        0.0000E+00        3.5870E+00        0.0000E+00
        1.2813E-02        0.0000E+00        3.5240E+00        0.0000E+00
        1.2826E-02        0.0000E+00        3.6580E+00        0.0000E+00
        1.2844E-02        0.0000E+00        3.6410E+00        0.0000E+00
        1.2867E-02        0.0000E+00        3.5370E+00        0.0000E+00
        1.2886E-02        0.0000E+00        3.5570E+00        0.0000E+00
        1.2915E-02        0.0000E+00        3.5200E+00        0.0000E+00
        1.2921E-02        0.0000E+00        3.4400E+00        0.0000E+00
        1.2940E-02        0.0000E+00        3.5450E+00        0.0000E+00
        1.2958E-02        0.0000E+00        3.6320E+00        0.0000E+00
        1.2982E-02        0.0000E+00        3.5150E+00        0.0000E+00
        1.2988E-02        0.0000E+00        3.6410E+00        0.0000E+00
        1.3018E-02        0.0000E+00        3.5190E+00        0.0000E+00
        1.3032E-02        0.0000E+00        3.8580E+00        0.0000E+00
        1.3044E-02        0.0000E+00        3.8160E+00        0.0000E+00
        1.3080E-02        0.0000E+00        3.8580E+00        0.0000E+00
        1.3092E-02        0.0000E+00        3.7910E+00        0.0000E+00
        1.3116E-02        0.0000E+00        3.8200E+00        0.0000E+00
        1.3139E-02        0.0000E+00        3.7450E+00        0.0000E+00
        1.3146E-02        0.0000E+00        3.8330E+00        0.0000E+00
        1.3183E-02        0.0000E+00        3.8910E+00        0.0000E+00
        1.3188E-02        0.0000E+00        3.7360E+00        0.0000E+00
        1.3205E-02        0.0000E+00        3.6900E+00        0.0000E+00
        1.3224E-02        0.0000E+00        3.7780E+00        0.0000E+00
        1.3251E-02        0.0000E+00        3.3850E+00        0.0000E+00
        1.3253E-02        0.0000E+00        3.6900E+00        0.0000E+00
        1.3288E-02        0.0000E+00        3.4220E+00        0.0000E+00
        1.3307E-02        0.0000E+00        3.5850E+00        0.0000E+00
        1.3331E-02        0.0000E+00        3.6310E+00        0.0000E+00
        1.3355E-02        0.0000E+00        3.6020E+00        0.0000E+00
        1.3362E-02        0.0000E+00        3.7060E+00        0.0000E+00
        1.3379E-02        0.0000E+00        3.5600E+00        0.0000E+00
        1.3404E-02        0.0000E+00        3.7440E+00        0.0000E+00
        1.3421E-02        0.0000E+00        3.5890E+00        0.0000E+00
        1.3444E-02        0.0000E+00        3.4930E+00        0.0000E+00
        1.3458E-02        0.0000E+00        3.6940E+00        0.0000E+00
        1.3486E-02        0.0000E+00        3.4590E+00        0.0000E+00
        1.3510E-02        0.0000E+00        3.3710E+00        0.0000E+00
        1.3529E-02        0.0000E+00        3.5130E+00        0.0000E+00
        1.3546E-02        0.0000E+00        3.4510E+00        0.0000E+00
        1.3569E-02        0.0000E+00        3.3210E+00        0.0000E+00
        1.3582E-02        0.0000E+00        3.3380E+00        0.0000E+00
        1.3611E-02        0.0000E+00        3.1660E+00        0.0000E+00
        1.3617E-02        0.0000E+00        3.2700E+00        0.0000E+00
        1.3660E-02        0.0000E+00        3.3620E+00        0.0000E+00
        1.3678E-02        0.0000E+00        3.3330E+00        0.0000E+00
        1.3678E-02        0.0000E+00        3.3750E+00        0.0000E+00
        1.3713E-02        0.0000E+00        3.2410E+00        0.0000E+00
        1.3738E-02        0.0000E+00        3.3750E+00        0.0000E+00
        1.3751E-02        0.0000E+00        3.5210E+00        0.0000E+00
        1.3763E-02        0.0000E+00        3.4210E+00        0.0000E+00
        1.3787E-02        0.0000E+00        3.4750E+00        0.0000E+00
        1.3811E-02        0.0000E+00        3.4580E+00        0.0000E+00
        1.3830E-02        0.0000E+00        3.5420E+00        0.0000E+00
        1.3853E-02        0.0000E+00        3.4960E+00        0.0000E+00
        1.3877E-02        0.0000E+00        3.4540E+00        0.0000E+00
        1.3901E-02        0.0000E+00        3.4580E+00        0.0000E+00
        1.3936E-02        0.0000E+00        3.2690E+00        0.0000E+00
        1.3960E-02        0.0000E+00        3.2110E+00        0.0000E+00
        1.3965E-02        0.0000E+00        3.1020E+00        0.0000E+00
        1.3990E-02        0.0000E+00        3.2940E+00        0.0000E+00
        1.4020E-02        0.0000E+00        3.2110E+00        0.0000E+00
        1.4044E-02        0.0000E+00        3.2480E+00        0.0000E+00
        1.4069E-02        0.0000E+00        3.4410E+00        0.0000E+00
        1.4087E-02        0.0000E+00        3.4240E+00        0.0000E+00
        1.4112E-02        0.0000E+00        3.5870E+00        0.0000E+00
        1.4118E-02        0.0000E+00        3.5490E+00        0.0000E+00
        1.4142E-02        0.0000E+00        3.4780E+00        0.0000E+00
        1.4165E-02        0.0000E+00        3.3400E+00        0.0000E+00
        1.4189E-02        0.0000E+00        3.4150E+00        0.0000E+00
        1.4207E-02        0.0000E+00        3.3400E+00        0.0000E+00
        1.4237E-02        0.0000E+00        3.3100E+00        0.0000E+00
        1.4255E-02        0.0000E+00        3.3310E+00        0.0000E+00
        1.4284E-02        0.0000E+00        3.1590E+00        0.0000E+00
        1.4291E-02        0.0000E+00        3.3770E+00        0.0000E+00
        1.4321E-02        0.0000E+00        3.3770E+00        0.0000E+00
        1.4353E-02        0.0000E+00        3.5690E+00        0.0000E+00
        1.4363E-02        0.0000E+00        3.3140E+00        0.0000E+00
        1.4383E-02        0.0000E+00        3.5860E+00        0.0000E+00
        1.4406E-02        0.0000E+00        3.4390E+00        0.0000E+00
        1.4430E-02        0.0000E+00        3.4520E+00        0.0000E+00
        1.4449E-02        0.0000E+00        3.5940E+00        0.0000E+00
        1.4468E-02        0.0000E+00        3.7450E+00        0.0000E+00
        1.4492E-02        0.0000E+00        3.6900E+00        0.0000E+00
        1.4527E-02        0.0000E+00        3.5020E+00        0.0000E+00
        1.4528E-02        0.0000E+00        3.7360E+00        0.0000E+00
        1.4563E-02        0.0000E+00        3.5520E+00        0.0000E+00
        1.4581E-02        0.0000E+00        3.4850E+00        0.0000E+00
        1.4599E-02        0.0000E+00        3.4510E+00        0.0000E+00
        1.4623E-02        0.0000E+00        3.5220E+00        0.0000E+00
        1.4660E-02        0.0000E+00        3.6100E+00        0.0000E+00
        1.4660E-02        0.0000E+00        3.6640E+00        0.0000E+00
        1.4704E-02        0.0000E+00        3.8650E+00        0.0000E+00
        1.4714E-02        0.0000E+00        3.6680E+00        0.0000E+00
        1.4745E-02        0.0000E+00        3.7270E+00        0.0000E+00
        1.4774E-02        0.0000E+00        3.6680E+00        0.0000E+00
        1.4798E-02        0.0000E+00        3.6430E+00        0.0000E+00
        1.4821E-02        0.0000E+00        3.4460E+00        0.0000E+00
        1.4850E-02        0.0000E+00        3.3250E+00        0.0000E+00
        1.4891E-02        0.0000E+00        3.1830E+00        0.0000E+00
        1.4909E-02        0.0000E+00        3.1320E+00        0.0000E+00
        1.4933E-02        0.0000E+00        3.0690E+00        0.0000E+00
        1.4963E-02        0.0000E+00        3.0480E+00        0.0000E+00
        1.4963E-02        0.0000E+00        3.1450E+00        0.0000E+00
        1.5000E-02        0.0000E+00        3.1820E+00        0.0000E+00
