# entry-subent-pointer  : 12848-005-0 
# EXFOR reaction        : ['92-U-235', ['N,F'], ',,SIG'] 
# incident energy       : 2.7880e+00 MeV - 6.2030e+00 MeV 
# target                : U-235 
# product               : - 
# level energy          : - 
# MF-MT number          : 3 - 18 
# first author          : A.D.Carlson 
# institute             : (1USANBS): National Bureau of Standards, Washington, DC 
# reference             : (C,78HARWELL,,880,1978) 
# year                  : 1978 
# facility              : (LINAC): Linear accelerator 
# git                   : https://github.com/IAEA-NDS/exfor_master/blob/main/exforall/128/12848.x4 
# nds                   : https://nds.iaea.org/EXFOR/12848
#
#       E_in(MeV)       dE_in(MeV)            XS(B)           dXS(B)
      2.78800E+00      0.00000E+00      1.22200E+00      2.93280E-02
      2.85500E+00      0.00000E+00      1.20500E+00      3.01250E-02
      2.92400E+00      0.00000E+00      1.20200E+00      2.88480E-02
      2.99500E+00      0.00000E+00      1.21700E+00      2.92080E-02
      3.06900E+00      0.00000E+00      1.17200E+00      2.81280E-02
      3.14700E+00      0.00000E+00      1.15600E+00      2.89000E-02
      3.22700E+00      0.00000E+00      1.16000E+00      3.01600E-02
      3.31100E+00      0.00000E+00      1.16100E+00      3.01860E-02
      3.39700E+00      0.00000E+00      1.19900E+00      3.11740E-02
      3.48700E+00      0.00000E+00      1.13700E+00      2.84250E-02
      3.58100E+00      0.00000E+00      1.11800E+00      2.90680E-02
      3.67800E+00      0.00000E+00      1.12000E+00      2.91200E-02
      3.78000E+00      0.00000E+00      1.13100E+00      2.82750E-02
      3.88500E+00      0.00000E+00      1.07500E+00      2.79500E-02
      3.99600E+00      0.00000E+00      1.09800E+00      2.85480E-02
      4.11100E+00      0.00000E+00      1.08200E+00      2.70500E-02
      4.23100E+00      0.00000E+00      1.11700E+00      2.90420E-02
      4.35600E+00      0.00000E+00      1.14000E+00      2.96400E-02
      4.48700E+00      0.00000E+00      1.11200E+00      2.89120E-02
      4.62500E+00      0.00000E+00      1.08500E+00      2.49550E-02
      4.76800E+00      0.00000E+00      1.10500E+00      2.43100E-02
      4.91800E+00      0.00000E+00      1.05200E+00      2.31440E-02
      5.07600E+00      0.00000E+00      1.04100E+00      2.29020E-02
      5.24100E+00      0.00000E+00      1.02100E+00      2.34830E-02
      5.41500E+00      0.00000E+00      1.03200E+00      2.37360E-02
      5.59700E+00      0.00000E+00      1.05800E+00      2.32760E-02
      5.78900E+00      0.00000E+00      1.05300E+00      2.31660E-02
      5.99100E+00      0.00000E+00      1.09900E+00      2.41780E-02
      6.20300E+00      0.00000E+00      1.17700E+00      2.58940E-02
