# entry-subent-pointer  : 30205-003-0 
# EXFOR reaction        : ['51-SB-0', ['N,TOT'], ',,SIG'] 
# incident energy       : 2.7220e-09 MeV - 9.4680e-09 MeV 
# target                : Sb-0 
# product               : - 
# level energy          : - 
# MF-MT number          : 3 - 1 
# first author          : D.Bally 
# institute             : (3RUMBUC): Horia Hulubei National Institute (IFIN-HH), Magurele 
# reference             : (J,AE,12,514,196206) 
# year                  : 1962 
# facility              : (SPECC): Crystal spectrometer 
# git                   : https://github.com/IAEA-NDS/exfor_master/blob/main/exforall/302/30205.x4 
# nds                   : https://nds.iaea.org/EXFOR/30205
#
#       E_in(MeV)       dE_in(MeV)            XS(B)           dXS(B)
      2.72200E-09      0.00000E+00      2.34700E+01      4.10000E-01
      2.89600E-09      0.00000E+00      2.23200E+01      0.00000E+00
      3.19100E-09      0.00000E+00      2.16200E+01      0.00000E+00
      3.30000E-09      0.00000E+00      2.18000E+01      0.00000E+00
      3.53400E-09      0.00000E+00      2.10900E+01      0.00000E+00
      3.79500E-09      0.00000E+00      2.08300E+01      2.50000E-01
      3.88900E-09      0.00000E+00      2.01700E+01      0.00000E+00
      3.98700E-09      0.00000E+00      2.06100E+01      0.00000E+00
      4.08800E-09      0.00000E+00      2.09500E+01      0.00000E+00
      4.24700E-09      0.00000E+00      2.12600E+01      2.50000E-01
      4.41600E-09      0.00000E+00      2.13100E+01      2.40000E-01
      4.78500E-09      0.00000E+00      2.06500E+01      0.00000E+00
      4.98800E-09      0.00000E+00      2.01200E+01      0.00000E+00
      5.20400E-09      0.00000E+00      1.99000E+01      0.00000E+00
      5.68100E-09      0.00000E+00      1.95100E+01      2.10000E-01
      5.94600E-09      0.00000E+00      1.83000E+01      0.00000E+00
      6.22800E-09      0.00000E+00      1.82700E+01      0.00000E+00
      6.86000E-09      0.00000E+00      1.76600E+01      2.00000E-01
      7.21300E-09      0.00000E+00      1.73900E+01      0.00000E+00
      7.59300E-09      0.00000E+00      1.71500E+01      2.00000E-01
      8.00600E-09      0.00000E+00      1.56700E+01      0.00000E+00
      8.45300E-09      0.00000E+00      1.63800E+01      2.00000E-01
      9.46800E-09      0.00000E+00      1.58500E+01      0.00000E+00
