# entry-subent-pointer  : 10225-005-0 
# EXFOR reaction        : (90-TH-232(N,TOT),,SIG) 
# incident energy       : 5.0100e-01 MeV - 9.5990e+00 MeV 
# target                : Th-232 
# product               : - 
# level energy          : - 
# MF-MT number          : 3 - 1 
# first author          : Green 
# institute             : (1USABET): Bettis Atomic Power Laboratory , Westinghouse, Pittsburgh,PA 
# reference             : (R,WAPD-TM-1073,197304) 
# year                  : 1973 
# facility              : None 
# git                   : https://github.com/IAEA-NDS/exfor_master/blob/main/exforall/102/10225.x4 
# nds                   : https://nds.iaea.org/EXFOR/10225
#
#       E_in(MeV)         dE_in(MeV)        XS(B)             dXS(B)
        5.0100E-01        0.0000E+00        9.0340E+00        0.0000E+00
        5.0320E-01        0.0000E+00        8.3980E+00        0.0000E+00
        5.0540E-01        0.0000E+00        8.1550E+00        0.0000E+00
        5.0760E-01        0.0000E+00        7.4870E+00        0.0000E+00
        5.0980E-01        0.0000E+00        7.3670E+00        0.0000E+00
        5.1200E-01        0.0000E+00        7.4030E+00        0.0000E+00
        5.1430E-01        0.0000E+00        8.5050E+00        0.0000E+00
        5.1660E-01        0.0000E+00        7.9290E+00        0.0000E+00
        5.1890E-01        0.0000E+00        8.1510E+00        0.0000E+00
        5.2120E-01        0.0000E+00        7.4830E+00        0.0000E+00
        5.2350E-01        0.0000E+00        8.4790E+00        0.0000E+00
        5.2580E-01        0.0000E+00        7.7680E+00        0.0000E+00
        5.2810E-01        0.0000E+00        7.6210E+00        0.0000E+00
        5.3050E-01        0.0000E+00        7.8290E+00        0.0000E+00
        5.3290E-01        0.0000E+00        7.0840E+00        0.0000E+00
        5.3530E-01        0.0000E+00        6.9780E+00        0.0000E+00
        5.3770E-01        0.0000E+00        7.4620E+00        0.0000E+00
        5.4010E-01        0.0000E+00        7.2330E+00        0.0000E+00
        5.4260E-01        0.0000E+00        9.0590E+00        0.0000E+00
        5.4500E-01        0.0000E+00        7.3610E+00        0.0000E+00
        5.4750E-01        0.0000E+00        7.1340E+00        0.0000E+00
        5.5000E-01        0.0000E+00        7.6000E+00        0.0000E+00
        5.5250E-01        0.0000E+00        8.2640E+00        0.0000E+00
        5.5500E-01        0.0000E+00        7.6250E+00        0.0000E+00
        5.5760E-01        0.0000E+00        8.3990E+00        0.0000E+00
        5.6010E-01        0.0000E+00        7.5720E+00        0.0000E+00
        5.6270E-01        0.0000E+00        7.7120E+00        0.0000E+00
        5.6530E-01        0.0000E+00        7.2760E+00        0.0000E+00
        5.6790E-01        0.0000E+00        7.7490E+00        0.0000E+00
        5.7060E-01        0.0000E+00        8.1620E+00        0.0000E+00
        5.7320E-01        0.0000E+00        7.4490E+00        0.0000E+00
        5.7590E-01        0.0000E+00        7.9590E+00        0.0000E+00
        5.7860E-01        0.0000E+00        8.3300E+00        0.0000E+00
        5.8130E-01        0.0000E+00        8.3900E+00        0.0000E+00
        5.8400E-01        0.0000E+00        7.8980E+00        0.0000E+00
        5.8680E-01        0.0000E+00        7.8520E+00        0.0000E+00
        5.8950E-01        0.0000E+00        7.5500E+00        0.0000E+00
        5.9230E-01        0.0000E+00        6.7850E+00        0.0000E+00
        5.9510E-01        0.0000E+00        7.5940E+00        0.0000E+00
        5.9790E-01        0.0000E+00        7.6440E+00        0.0000E+00
        6.0080E-01        0.0000E+00        8.0440E+00        0.0000E+00
        6.0370E-01        0.0000E+00        7.4110E+00        0.0000E+00
        6.0650E-01        0.0000E+00        6.9240E+00        0.0000E+00
        6.0950E-01        0.0000E+00        7.4120E+00        0.0000E+00
        6.1240E-01        0.0000E+00        7.0790E+00        0.0000E+00
        6.1530E-01        0.0000E+00        7.3000E+00        0.0000E+00
        6.1830E-01        0.0000E+00        7.6230E+00        0.0000E+00
        6.2130E-01        0.0000E+00        6.8480E+00        0.0000E+00
        6.2430E-01        0.0000E+00        8.4020E+00        0.0000E+00
        6.2730E-01        0.0000E+00        7.4760E+00        0.0000E+00
        6.3040E-01        0.0000E+00        7.1250E+00        0.0000E+00
        6.3350E-01        0.0000E+00        7.5910E+00        0.0000E+00
        6.3660E-01        0.0000E+00        7.0090E+00        0.0000E+00
        6.3970E-01        0.0000E+00        7.1690E+00        0.0000E+00
        6.4290E-01        0.0000E+00        7.5000E+00        0.0000E+00
        6.4600E-01        0.0000E+00        7.0740E+00        0.0000E+00
        6.4920E-01        0.0000E+00        7.6750E+00        0.0000E+00
        6.5250E-01        0.0000E+00        7.6260E+00        0.0000E+00
        6.5570E-01        0.0000E+00        6.9090E+00        0.0000E+00
        6.5900E-01        0.0000E+00        7.5270E+00        0.0000E+00
        6.6230E-01        0.0000E+00        6.9330E+00        0.0000E+00
        6.6560E-01        0.0000E+00        6.7840E+00        0.0000E+00
        6.6890E-01        0.0000E+00        7.5340E+00        0.0000E+00
        6.7230E-01        0.0000E+00        7.0550E+00        0.0000E+00
        6.7570E-01        0.0000E+00        7.4100E+00        0.0000E+00
        6.7910E-01        0.0000E+00        7.1920E+00        0.0000E+00
        6.8260E-01        0.0000E+00        7.3630E+00        0.0000E+00
        6.8600E-01        0.0000E+00        7.5530E+00        0.0000E+00
        6.8950E-01        0.0000E+00        7.5950E+00        0.0000E+00
        6.9310E-01        0.0000E+00        7.9150E+00        0.0000E+00
        6.9660E-01        0.0000E+00        6.9400E+00        0.0000E+00
        7.0020E-01        0.0000E+00        7.1400E+00        0.0000E+00
        7.0380E-01        0.0000E+00        7.9700E+00        0.0000E+00
        7.0740E-01        0.0000E+00        7.4460E+00        0.0000E+00
        7.1110E-01        0.0000E+00        7.4720E+00        0.0000E+00
        7.1480E-01        0.0000E+00        7.2010E+00        0.0000E+00
        7.1850E-01        0.0000E+00        6.6820E+00        0.0000E+00
        7.2230E-01        0.0000E+00        7.5370E+00        0.0000E+00
        7.2600E-01        0.0000E+00        7.4890E+00        0.0000E+00
        7.2990E-01        0.0000E+00        6.6770E+00        0.0000E+00
        7.3370E-01        0.0000E+00        7.8300E+00        0.0000E+00
        7.3760E-01        0.0000E+00        7.1450E+00        0.0000E+00
        7.4150E-01        0.0000E+00        7.2810E+00        0.0000E+00
        7.4540E-01        0.0000E+00        6.7240E+00        0.0000E+00
        7.4940E-01        0.0000E+00        7.5160E+00        0.0000E+00
        7.5340E-01        0.0000E+00        7.5420E+00        0.0000E+00
        7.5740E-01        0.0000E+00        7.3450E+00        0.0000E+00
        7.6140E-01        0.0000E+00        7.4990E+00        0.0000E+00
        7.6550E-01        0.0000E+00        7.4190E+00        0.0000E+00
        7.6970E-01        0.0000E+00        7.7010E+00        0.0000E+00
        7.7380E-01        0.0000E+00        7.0590E+00        0.0000E+00
        7.7800E-01        0.0000E+00        7.0450E+00        0.0000E+00
        7.8220E-01        0.0000E+00        7.1180E+00        0.0000E+00
        7.8650E-01        0.0000E+00        7.1570E+00        0.0000E+00
        7.9080E-01        0.0000E+00        6.9060E+00        0.0000E+00
        7.9510E-01        0.0000E+00        7.1700E+00        0.0000E+00
        7.9950E-01        0.0000E+00        7.2080E+00        0.0000E+00
        8.0390E-01        0.0000E+00        7.0770E+00        0.0000E+00
        8.0830E-01        0.0000E+00        7.0980E+00        0.0000E+00
        8.1280E-01        0.0000E+00        7.2420E+00        0.0000E+00
        8.1730E-01        0.0000E+00        7.1370E+00        0.0000E+00
        8.2190E-01        0.0000E+00        6.9260E+00        0.0000E+00
        8.2650E-01        0.0000E+00        7.4370E+00        0.0000E+00
        8.3110E-01        0.0000E+00        6.9900E+00        0.0000E+00
        8.3580E-01        0.0000E+00        7.2160E+00        0.0000E+00
        8.4050E-01        0.0000E+00        6.5770E+00        0.0000E+00
        8.4520E-01        0.0000E+00        7.2140E+00        0.0000E+00
        8.5000E-01        0.0000E+00        6.9900E+00        0.0000E+00
        8.5480E-01        0.0000E+00        6.8570E+00        0.0000E+00
        8.5970E-01        0.0000E+00        6.9420E+00        0.0000E+00
        8.6460E-01        0.0000E+00        7.1270E+00        0.0000E+00
        8.6960E-01        0.0000E+00        7.0000E+00        0.0000E+00
        8.7460E-01        0.0000E+00        7.0020E+00        0.0000E+00
        8.7960E-01        0.0000E+00        6.9000E+00        0.0000E+00
        8.8470E-01        0.0000E+00        7.1900E+00        0.0000E+00
        8.8980E-01        0.0000E+00        6.8430E+00        0.0000E+00
        8.9500E-01        0.0000E+00        6.9770E+00        0.0000E+00
        9.0020E-01        0.0000E+00        7.1180E+00        0.0000E+00
        9.0550E-01        0.0000E+00        6.8940E+00        0.0000E+00
        9.1080E-01        0.0000E+00        7.0160E+00        0.0000E+00
        9.1610E-01        0.0000E+00        7.3570E+00        0.0000E+00
        9.2150E-01        0.0000E+00        6.9230E+00        0.0000E+00
        9.2700E-01        0.0000E+00        7.1510E+00        0.0000E+00
        9.3250E-01        0.0000E+00        7.3240E+00        0.0000E+00
        9.3800E-01        0.0000E+00        7.0740E+00        0.0000E+00
        9.4360E-01        0.0000E+00        7.0680E+00        0.0000E+00
        9.4930E-01        0.0000E+00        6.5400E+00        0.0000E+00
        9.5500E-01        0.0000E+00        7.0770E+00        0.0000E+00
        9.6070E-01        0.0000E+00        6.6970E+00        0.0000E+00
        9.6650E-01        0.0000E+00        7.0500E+00        0.0000E+00
        9.7240E-01        0.0000E+00        6.8700E+00        0.0000E+00
        9.7830E-01        0.0000E+00        6.9350E+00        0.0000E+00
        9.8430E-01        0.0000E+00        7.0020E+00        0.0000E+00
        9.9030E-01        0.0000E+00        6.8670E+00        0.0000E+00
        9.9640E-01        0.0000E+00        6.8180E+00        0.0000E+00
        1.0020E+00        0.0000E+00        7.0980E+00        0.0000E+00
        1.0090E+00        0.0000E+00        7.2370E+00        0.0000E+00
        1.0150E+00        0.0000E+00        6.9180E+00        0.0000E+00
        1.0210E+00        0.0000E+00        7.1230E+00        0.0000E+00
        1.0280E+00        0.0000E+00        6.7410E+00        0.0000E+00
        1.0340E+00        0.0000E+00        6.8990E+00        0.0000E+00
        1.0400E+00        0.0000E+00        6.7640E+00        0.0000E+00
        1.0470E+00        0.0000E+00        7.2520E+00        0.0000E+00
        1.0540E+00        0.0000E+00        7.0490E+00        0.0000E+00
        1.0600E+00        0.0000E+00        7.0880E+00        0.0000E+00
        1.0670E+00        0.0000E+00        7.0950E+00        0.0000E+00
        1.0740E+00        0.0000E+00        6.9830E+00        0.0000E+00
        1.0810E+00        0.0000E+00        7.2860E+00        0.0000E+00
        1.0880E+00        0.0000E+00        7.0160E+00        0.0000E+00
        1.0950E+00        0.0000E+00        7.0640E+00        0.0000E+00
        1.1020E+00        0.0000E+00        7.0300E+00        0.0000E+00
        1.1090E+00        0.0000E+00        6.9390E+00        0.0000E+00
        1.1160E+00        0.0000E+00        6.6060E+00        0.0000E+00
        1.1230E+00        0.0000E+00        6.9050E+00        0.0000E+00
        1.1310E+00        0.0000E+00        6.6200E+00        0.0000E+00
        1.1380E+00        0.0000E+00        6.8770E+00        0.0000E+00
        1.1460E+00        0.0000E+00        6.6910E+00        0.0000E+00
        1.1530E+00        0.0000E+00        6.4640E+00        0.0000E+00
        1.1610E+00        0.0000E+00        6.6090E+00        0.0000E+00
        1.1680E+00        0.0000E+00        6.5040E+00        0.0000E+00
        1.1760E+00        0.0000E+00        6.7490E+00        0.0000E+00
        1.1840E+00        0.0000E+00        6.5500E+00        0.0000E+00
        1.1920E+00        0.0000E+00        6.5720E+00        0.0000E+00
        1.2000E+00        0.0000E+00        6.9170E+00        0.0000E+00
        1.2080E+00        0.0000E+00        6.9120E+00        0.0000E+00
        1.2160E+00        0.0000E+00        6.3640E+00        0.0000E+00
        1.2250E+00        0.0000E+00        6.4880E+00        0.0000E+00
        1.2330E+00        0.0000E+00        6.6640E+00        0.0000E+00
        1.2410E+00        0.0000E+00        7.0000E+00        0.0000E+00
        1.2500E+00        0.0000E+00        6.4720E+00        0.0000E+00
        1.2590E+00        0.0000E+00        6.7750E+00        0.0000E+00
        1.2670E+00        0.0000E+00        6.6590E+00        0.0000E+00
        1.2760E+00        0.0000E+00        7.0540E+00        0.0000E+00
        1.2850E+00        0.0000E+00        6.7210E+00        0.0000E+00
        1.2940E+00        0.0000E+00        7.0810E+00        0.0000E+00
        1.3030E+00        0.0000E+00        6.8400E+00        0.0000E+00
        1.3120E+00        0.0000E+00        6.7850E+00        0.0000E+00
        1.3220E+00        0.0000E+00        6.7830E+00        0.0000E+00
        1.3310E+00        0.0000E+00        6.9300E+00        0.0000E+00
        1.3400E+00        0.0000E+00        7.1250E+00        0.0000E+00
        1.3500E+00        0.0000E+00        6.7760E+00        0.0000E+00
        1.3600E+00        0.0000E+00        6.7540E+00        0.0000E+00
        1.3690E+00        0.0000E+00        6.8110E+00        0.0000E+00
        1.3790E+00        0.0000E+00        7.0020E+00        0.0000E+00
        1.3890E+00        0.0000E+00        6.6750E+00        0.0000E+00
        1.3990E+00        0.0000E+00        7.0770E+00        0.0000E+00
        1.4100E+00        0.0000E+00        6.5860E+00        0.0000E+00
        1.4200E+00        0.0000E+00        6.7220E+00        0.0000E+00
        1.4300E+00        0.0000E+00        6.8490E+00        0.0000E+00
        1.4410E+00        0.0000E+00        6.9420E+00        0.0000E+00
        1.4520E+00        0.0000E+00        7.1040E+00        0.0000E+00
        1.4620E+00        0.0000E+00        7.1900E+00        0.0000E+00
        1.4730E+00        0.0000E+00        6.7140E+00        0.0000E+00
        1.4840E+00        0.0000E+00        6.5620E+00        0.0000E+00
        1.4960E+00        0.0000E+00        6.7650E+00        0.0000E+00
        1.5070E+00        0.0000E+00        6.7400E+00        0.0000E+00
        1.5180E+00        0.0000E+00        7.0300E+00        0.0000E+00
        1.5300E+00        0.0000E+00        6.6560E+00        0.0000E+00
        1.5410E+00        0.0000E+00        7.0750E+00        0.0000E+00
        1.5530E+00        0.0000E+00        6.6330E+00        0.0000E+00
        1.5650E+00        0.0000E+00        6.7480E+00        0.0000E+00
        1.5770E+00        0.0000E+00        7.1080E+00        0.0000E+00
        1.5900E+00        0.0000E+00        7.0570E+00        0.0000E+00
        1.6020E+00        0.0000E+00        6.8060E+00        0.0000E+00
        1.6140E+00        0.0000E+00        7.0290E+00        0.0000E+00
        1.6270E+00        0.0000E+00        6.8600E+00        0.0000E+00
        1.6400E+00        0.0000E+00        7.0910E+00        0.0000E+00
        1.6530E+00        0.0000E+00        6.8800E+00        0.0000E+00
        1.6660E+00        0.0000E+00        6.8940E+00        0.0000E+00
        1.6790E+00        0.0000E+00        7.2430E+00        0.0000E+00
        1.6930E+00        0.0000E+00        7.0550E+00        0.0000E+00
        1.7060E+00        0.0000E+00        6.8890E+00        0.0000E+00
        1.7200E+00        0.0000E+00        7.0370E+00        0.0000E+00
        1.7340E+00        0.0000E+00        7.1120E+00        0.0000E+00
        1.7480E+00        0.0000E+00        7.1370E+00        0.0000E+00
        1.7620E+00        0.0000E+00        7.0630E+00        0.0000E+00
        1.7770E+00        0.0000E+00        7.0770E+00        0.0000E+00
        1.7910E+00        0.0000E+00        7.1300E+00        0.0000E+00
        1.8060E+00        0.0000E+00        7.1550E+00        0.0000E+00
        1.8210E+00        0.0000E+00        7.2070E+00        0.0000E+00
        1.8360E+00        0.0000E+00        7.0830E+00        0.0000E+00
        1.8520E+00        0.0000E+00        7.1750E+00        0.0000E+00
        1.8670E+00        0.0000E+00        7.0580E+00        0.0000E+00
        1.8830E+00        0.0000E+00        7.5500E+00        0.0000E+00
        1.8990E+00        0.0000E+00        7.1750E+00        0.0000E+00
        1.9150E+00        0.0000E+00        7.4170E+00        0.0000E+00
        1.9320E+00        0.0000E+00        7.1790E+00        0.0000E+00
        1.9480E+00        0.0000E+00        7.0340E+00        0.0000E+00
        1.9650E+00        0.0000E+00        7.4100E+00        0.0000E+00
        1.9820E+00        0.0000E+00        7.3790E+00        0.0000E+00
        1.9990E+00        0.0000E+00        7.2810E+00        0.0000E+00
        2.0170E+00        0.0000E+00        7.0470E+00        0.0000E+00
        2.0350E+00        0.0000E+00        7.5900E+00        0.0000E+00
        2.0530E+00        0.0000E+00        7.1370E+00        0.0000E+00
        2.0710E+00        0.0000E+00        7.3320E+00        0.0000E+00
        2.0890E+00        0.0000E+00        7.5080E+00        0.0000E+00
        2.1080E+00        0.0000E+00        7.3950E+00        0.0000E+00
        2.1270E+00        0.0000E+00        7.2860E+00        0.0000E+00
        2.1460E+00        0.0000E+00        7.3040E+00        0.0000E+00
        2.1650E+00        0.0000E+00        7.3340E+00        0.0000E+00
        2.1850E+00        0.0000E+00        7.0940E+00        0.0000E+00
        2.2050E+00        0.0000E+00        6.9930E+00        0.0000E+00
        2.2250E+00        0.0000E+00        7.1370E+00        0.0000E+00
        2.2460E+00        0.0000E+00        7.5190E+00        0.0000E+00
        2.2670E+00        0.0000E+00        7.3970E+00        0.0000E+00
        2.2880E+00        0.0000E+00        7.3890E+00        0.0000E+00
        2.3090E+00        0.0000E+00        7.6680E+00        0.0000E+00
        2.3310E+00        0.0000E+00        7.4760E+00        0.0000E+00
        2.3530E+00        0.0000E+00        7.3050E+00        0.0000E+00
        2.3750E+00        0.0000E+00        7.5410E+00        0.0000E+00
        2.3980E+00        0.0000E+00        7.5380E+00        0.0000E+00
        2.4210E+00        0.0000E+00        7.5070E+00        0.0000E+00
        2.4440E+00        0.0000E+00        7.4950E+00        0.0000E+00
        2.4680E+00        0.0000E+00        7.4550E+00        0.0000E+00
        2.4920E+00        0.0000E+00        7.6860E+00        0.0000E+00
        2.5160E+00        0.0000E+00        7.6750E+00        0.0000E+00
        2.5410E+00        0.0000E+00        7.4820E+00        0.0000E+00
        2.5660E+00        0.0000E+00        7.5720E+00        0.0000E+00
        2.5910E+00        0.0000E+00        7.8570E+00        0.0000E+00
        2.6170E+00        0.0000E+00        7.3820E+00        0.0000E+00
        2.6430E+00        0.0000E+00        7.9030E+00        0.0000E+00
        2.6700E+00        0.0000E+00        7.7110E+00        0.0000E+00
        2.6970E+00        0.0000E+00        7.6560E+00        0.0000E+00
        2.7240E+00        0.0000E+00        7.6870E+00        0.0000E+00
        2.7520E+00        0.0000E+00        7.8880E+00        0.0000E+00
        2.7800E+00        0.0000E+00        7.7800E+00        0.0000E+00
        2.8090E+00        0.0000E+00        7.5890E+00        0.0000E+00
        2.8380E+00        0.0000E+00        7.8610E+00        0.0000E+00
        2.8680E+00        0.0000E+00        7.6860E+00        0.0000E+00
        2.8980E+00        0.0000E+00        7.6950E+00        0.0000E+00
        2.9280E+00        0.0000E+00        7.7390E+00        0.0000E+00
        2.9600E+00        0.0000E+00        7.8120E+00        0.0000E+00
        2.9910E+00        0.0000E+00        7.8910E+00        0.0000E+00
        3.0230E+00        0.0000E+00        7.8460E+00        0.0000E+00
        3.0560E+00        0.0000E+00        7.5450E+00        0.0000E+00
        3.0890E+00        0.0000E+00        7.6690E+00        0.0000E+00
        3.1220E+00        0.0000E+00        7.6390E+00        0.0000E+00
        3.1570E+00        0.0000E+00        7.6960E+00        0.0000E+00
        3.1910E+00        0.0000E+00        7.6700E+00        0.0000E+00
        3.2270E+00        0.0000E+00        7.7230E+00        0.0000E+00
        3.2630E+00        0.0000E+00        7.6760E+00        0.0000E+00
        3.2990E+00        0.0000E+00        7.7750E+00        0.0000E+00
        3.3360E+00        0.0000E+00        7.7390E+00        0.0000E+00
        3.3740E+00        0.0000E+00        7.7180E+00        0.0000E+00
        3.4120E+00        0.0000E+00        7.9270E+00        0.0000E+00
        3.4520E+00        0.0000E+00        7.6080E+00        0.0000E+00
        3.4910E+00        0.0000E+00        7.8570E+00        0.0000E+00
        3.5320E+00        0.0000E+00        7.7660E+00        0.0000E+00
        3.5730E+00        0.0000E+00        8.1310E+00        0.0000E+00
        3.6150E+00        0.0000E+00        7.7360E+00        0.0000E+00
        3.6570E+00        0.0000E+00        7.9530E+00        0.0000E+00
        3.7010E+00        0.0000E+00        7.7770E+00        0.0000E+00
        3.7450E+00        0.0000E+00        7.9110E+00        0.0000E+00
        3.7900E+00        0.0000E+00        7.6600E+00        0.0000E+00
        3.8360E+00        0.0000E+00        7.7720E+00        0.0000E+00
        3.8820E+00        0.0000E+00        7.8960E+00        0.0000E+00
        3.9300E+00        0.0000E+00        7.8190E+00        0.0000E+00
        3.9780E+00        0.0000E+00        7.5300E+00        0.0000E+00
        4.0270E+00        0.0000E+00        7.8960E+00        0.0000E+00
        4.0780E+00        0.0000E+00        7.5830E+00        0.0000E+00
        4.1290E+00        0.0000E+00        7.5040E+00        0.0000E+00
        4.1810E+00        0.0000E+00        7.4600E+00        0.0000E+00
        4.2340E+00        0.0000E+00        7.5360E+00        0.0000E+00
        4.2880E+00        0.0000E+00        7.5530E+00        0.0000E+00
        4.3430E+00        0.0000E+00        7.6430E+00        0.0000E+00
        4.3990E+00        0.0000E+00        7.3550E+00        0.0000E+00
        4.4570E+00        0.0000E+00        7.6530E+00        0.0000E+00
        4.5150E+00        0.0000E+00        7.6490E+00        0.0000E+00
        4.5750E+00        0.0000E+00        7.2380E+00        0.0000E+00
        4.6360E+00        0.0000E+00        7.6730E+00        0.0000E+00
        4.6980E+00        0.0000E+00        7.6380E+00        0.0000E+00
        4.7610E+00        0.0000E+00        7.6220E+00        0.0000E+00
        4.8260E+00        0.0000E+00        7.6720E+00        0.0000E+00
        4.8910E+00        0.0000E+00        7.5280E+00        0.0000E+00
        4.9590E+00        0.0000E+00        7.2900E+00        0.0000E+00
        5.0270E+00        0.0000E+00        7.0500E+00        0.0000E+00
        5.0970E+00        0.0000E+00        7.2130E+00        0.0000E+00
        5.1690E+00        0.0000E+00        7.1770E+00        0.0000E+00
        5.2420E+00        0.0000E+00        6.7050E+00        0.0000E+00
        5.3170E+00        0.0000E+00        7.2460E+00        0.0000E+00
        5.3930E+00        0.0000E+00        6.9900E+00        0.0000E+00
        5.4710E+00        0.0000E+00        7.0180E+00        0.0000E+00
        5.5510E+00        0.0000E+00        7.1220E+00        0.0000E+00
        5.6320E+00        0.0000E+00        7.0140E+00        0.0000E+00
        5.7150E+00        0.0000E+00        7.1800E+00        0.0000E+00
        5.8010E+00        0.0000E+00        6.7270E+00        0.0000E+00
        5.8880E+00        0.0000E+00        7.1670E+00        0.0000E+00
        5.9770E+00        0.0000E+00        7.1060E+00        0.0000E+00
        6.0680E+00        0.0000E+00        6.7250E+00        0.0000E+00
        6.1610E+00        0.0000E+00        6.5130E+00        0.0000E+00
        6.2560E+00        0.0000E+00        6.8400E+00        0.0000E+00
        6.3540E+00        0.0000E+00        6.3700E+00        0.0000E+00
        6.4530E+00        0.0000E+00        6.5090E+00        0.0000E+00
        6.5560E+00        0.0000E+00        6.9910E+00        0.0000E+00
        6.6600E+00        0.0000E+00        6.3690E+00        0.0000E+00
        6.7680E+00        0.0000E+00        5.7450E+00        0.0000E+00
        6.8770E+00        0.0000E+00        6.7810E+00        0.0000E+00
        6.9900E+00        0.0000E+00        6.2440E+00        0.0000E+00
        7.1050E+00        0.0000E+00        6.1090E+00        0.0000E+00
        7.2240E+00        0.0000E+00        6.6520E+00        0.0000E+00
        7.3450E+00        0.0000E+00        6.0270E+00        0.0000E+00
        7.4690E+00        0.0000E+00        5.5440E+00        0.0000E+00
        7.5970E+00        0.0000E+00        6.5660E+00        0.0000E+00
        7.7270E+00        0.0000E+00        5.7970E+00        0.0000E+00
        7.8620E+00        0.0000E+00        5.6370E+00        0.0000E+00
        7.9990E+00        0.0000E+00        5.8960E+00        0.0000E+00
        8.1410E+00        0.0000E+00        5.6320E+00        0.0000E+00
        8.2860E+00        0.0000E+00        6.1620E+00        0.0000E+00
        8.4350E+00        0.0000E+00        6.3350E+00        0.0000E+00
        8.5890E+00        0.0000E+00        6.2280E+00        0.0000E+00
        8.7460E+00        0.0000E+00        5.5710E+00        0.0000E+00
        8.9080E+00        0.0000E+00        4.5490E+00        0.0000E+00
        9.0700E+00        0.0000E+00        5.6360E+00        0.0000E+00
        9.2460E+00        0.0000E+00        5.2130E+00        0.0000E+00
        9.4170E+00        0.0000E+00        5.6290E+00        0.0000E+00
        9.5990E+00        0.0000E+00        5.8080E+00        0.0000E+00
