# entry-subent-pointer  : B0111-006-0 
# EXFOR reaction        : ['37-RB-85', ['P,X'], '37-RB-83,IND,SIG'] 
# incident energy       : 2.1700e+01 MeV - 6.9900e+01 MeV 
# target                : Rb-85 
# product               : Rb-83 
# level energy          : - 
# MF-MT number          : 3 - 10 
# first author          : T.Horiguchi 
# institute             : (2JPNHIR): Hiroshima University , Hiroshima and Higashi-Hiroshima 
# reference             : (J,ARI,31,141,1980) 
# year                  : 1980 
# facility              : (ISOCY): Isochronous cyclotron 
# git                   : https://github.com/IAEA-NDS/exfor_master/blob/main/exforall/B01/B0111.x4 
# nds                   : https://nds.iaea.org/EXFOR/B0111
#
#       E_in(MeV)       dE_in(MeV)            XS(B)           dXS(B)
      2.17000E+01      0.00000E+00      3.90000E-03      7.00000E-04
      2.55000E+01      0.00000E+00      3.35000E-02      4.80000E-03
      2.94000E+01      0.00000E+00      1.13000E-01      1.60000E-02
      3.37000E+01      0.00000E+00      2.15000E-01      3.10000E-02
      3.84000E+01      0.00000E+00      3.13000E-01      4.50000E-02
      4.10000E+01      0.00000E+00      3.41000E-01      4.90000E-02
      4.51000E+01      0.00000E+00      3.56000E-01      5.10000E-02
      4.66000E+01      0.00000E+00      3.24000E-01      4.60000E-02
      4.75000E+01      0.00000E+00      2.58000E-01      3.70000E-02
      5.04000E+01      0.00000E+00      2.73000E-01      3.90000E-02
      5.27000E+01      0.00000E+00      2.19000E-01      3.10000E-02
      5.41000E+01      0.00000E+00      2.55000E-01      3.70000E-02
      5.59000E+01      0.00000E+00      2.02000E-01      2.90000E-02
      5.80000E+01      0.00000E+00      1.93000E-01      2.80000E-02
      5.93000E+01      0.00000E+00      1.91000E-01      2.70000E-02
      6.06000E+01      0.00000E+00      1.90000E-01      2.70000E-02
      6.24000E+01      0.00000E+00      1.81000E-01      2.60000E-02
      6.53000E+01      0.00000E+00      1.53000E-01      2.20000E-02
      6.67000E+01      0.00000E+00      1.90000E-01      2.70000E-02
      6.83000E+01      0.00000E+00      1.85000E-01      2.60000E-02
      6.88000E+01      0.00000E+00      1.71000E-01      2.50000E-02
      6.99000E+01      0.00000E+00      1.76000E-01      2.50000E-02
