# entry-subent-pointer  : 21545-014-0 
# EXFOR reaction        : ['95-AM-243', ['N,F'], 'MASS,CHN,FY,,MXW'] 
# incident energy       : 2.5300e-08 MeV 
# target                : Am-243 
# product               : 118.0 <= A <= 164.0 
# level energy          : - 
# MF-MT number          : 8 - 459 
# first author          : M.Asghar 
# institute             : (2FR ILL): Institut Laue-Langevin, Grenoble 
# reference             : (J,NP/A,334,(2),327,198002) 
# year                  : 1980 
# facility              : (REAC): Reactor 
# git                   : https://github.com/IAEA-NDS/exfor_master/blob/main/exforall/215/21545.x4 
# nds                   : https://nds.iaea.org/EXFOR/21545
#
# Charge(No Dim.)    Mass(No Dim.)  Isomer(No Dim.)    Yield(%/fiss)   dYield(%/fiss)
                             118.0                       3.91100E-04      0.00000E+00
                             119.0                       3.82180E-04      0.00000E+00
                             120.0                       4.81740E-04      0.00000E+00
                             121.0                       4.72820E-04      0.00000E+00
                             122.0                       4.64620E-04      0.00000E+00
                             123.0                       2.42700E-04      0.00000E+00
                             124.0                       6.63020E-04      0.00000E+00
                             125.0                       1.08550E-03      0.00000E+00
                             126.0                       2.58050E-03      0.00000E+00
                             127.0                       4.39770E-03      0.00000E+00
                             128.0                       6.96670E-03      0.00000E+00
                             129.0                       1.08250E-02      0.00000E+00
                             130.0                       1.54350E-02      0.00000E+00
                             131.0                       2.15490E-02      0.00000E+00
                             132.0                       2.91660E-02      0.00000E+00
                             133.0                       3.60310E-02      0.00000E+00
                             134.0                       4.45070E-02      0.00000E+00
                             135.0                       5.14800E-02      0.00000E+00
                             136.0                       5.52310E-02      0.00000E+00
                             137.0                       5.85530E-02      0.00000E+00
                             138.0                       5.94030E-02      0.00000E+00
                             139.0                       6.10060E-02      0.00000E+00
                             140.0                       5.93870E-02      0.00000E+00
                             141.0                       5.75530E-02      0.00000E+00
                             142.0                       5.44300E-02      0.00000E+00
                             143.0                       5.05550E-02      0.00000E+00
                             144.0                       4.79700E-02      0.00000E+00
                             145.0                       4.39870E-02      0.00000E+00
                             146.0                       3.93610E-02      0.00000E+00
                             147.0                       3.47350E-02      0.00000E+00
                             148.0                       2.89270E-02      0.00000E+00
                             149.0                       2.47300E-02      0.00000E+00
                             150.0                       1.99970E-02      0.00000E+00
                             151.0                       1.63360E-02      0.00000E+00
                             152.0                       1.35360E-02      0.00000E+00
                             153.0                       1.09500E-02      0.00000E+00
                             154.0                       8.57890E-03      0.00000E+00
                             155.0                       6.85200E-03      0.00000E+00
                             156.0                       5.76950E-03      0.00000E+00
                             157.0                       4.57990E-03      0.00000E+00
                             158.0                       3.49840E-03      0.00000E+00
                             159.0                       2.63070E-03      0.00000E+00
                             160.0                       1.97880E-03      0.00000E+00
                             161.0                       1.21810E-03      0.00000E+00
                             162.0                       7.80640E-04      0.00000E+00
                             163.0                       4.50600E-04      0.00000E+00
                             164.0                       4.43110E-04      0.00000E+00
