# entry-subent-pointer  : O1881-022-0 
# EXFOR reaction        : ['26-FE-0', ['P,X'], '27-CO-56,IND,SIG'] 
# incident energy       : 8.4300e+01 MeV - 2.5300e+03 MeV 
# target                : Fe-0 
# product               : Co-56 
# level energy          : - 
# MF-MT number          : 3 - 10 
# first author          : M.Gloris 
# institute             : (2GERUH): University Hannover (previously Tech.University Hannover) 
# reference             : (T,Gloris,1998) 
# year                  : 1998 
# facility              : (SYNCH): Synchrotron 
# git                   : https://github.com/IAEA-NDS/exfor_master/blob/main/exforall/O18/O1881.x4 
# nds                   : https://nds.iaea.org/EXFOR/O1881
#
#       E_in(MeV)       dE_in(MeV)            XS(B)           dXS(B)
      8.43000E+01      1.30000E+00      5.58000E-03      5.00000E-04
      1.03000E+02      1.00000E+00      4.75000E-03      4.30000E-04
      1.20000E+02      1.00000E+00      4.08000E-03      3.70000E-04
      1.23000E+02      2.00000E+00      4.08000E-03      3.70000E-04
      1.30000E+02      2.00000E+00      3.83000E-03      3.40000E-04
      1.35000E+02      1.00000E+00      3.23000E-03      2.90000E-04
      1.52000E+02      1.00000E+00      3.38000E-03      3.00000E-04
      1.58000E+02      1.00000E+00      3.09000E-03      2.80000E-04
      1.77000E+02      1.00000E+00      2.27000E-03      2.10000E-04
      3.25000E+02      1.00000E+00      1.38000E-03      1.70000E-04
      3.27000E+02      1.00000E+00      1.35000E-03      1.60000E-04
      3.28000E+02      1.00000E+00      1.41000E-03      1.70000E-04
      3.29000E+02      1.00000E+00      1.21000E-03      1.50000E-04
      3.96000E+02      1.00000E+00      1.21000E-03      1.50000E-04
      3.98000E+02      1.00000E+00      1.20000E-03      1.50000E-04
      3.98000E+02      1.00000E+00      1.22000E-03      1.50000E-04
      3.99000E+02      1.00000E+00      1.01000E-03      1.20000E-04
      5.46000E+02      2.00000E+00      1.60000E-03      1.90000E-04
      5.48000E+02      2.00000E+00      1.57000E-03      1.90000E-04
      5.67000E+02      1.00000E+00      1.41000E-03      1.80000E-04
      5.92000E+02      1.00000E+00      1.23000E-03      1.50000E-04
      5.96000E+02      1.00000E+00      1.31000E-03      1.60000E-04
      5.99000E+02      1.00000E+00      1.28000E-03      1.50000E-04
      7.53000E+02      2.00000E+00      1.85000E-03      2.30000E-04
      7.54000E+02      2.00000E+00      1.82000E-03      2.20000E-04
      7.70000E+02      1.00000E+00      1.34000E-03      1.70000E-04
      7.92000E+02      1.00000E+00      1.11000E-03      1.30000E-04
      7.96000E+02      1.00000E+00      1.21000E-03      1.50000E-04
      7.99000E+02      1.00000E+00      1.19000E-03      1.40000E-04
      1.19000E+03      1.00000E+00      1.18000E-03      1.40000E-04
      1.60000E+03      2.00000E+00      1.26000E-03      1.50000E-04
      2.53000E+03      2.00000E+00      9.98000E-04      1.31000E-04
