# entry-subent-pointer  : O1881-003-0 
# EXFOR reaction        : ['26-FE-0', ['P,X'], '11-NA-22,CUM,SIG'] 
# incident energy       : 3.2500e+02 MeV - 2.5300e+03 MeV 
# target                : Fe-0 
# product               : Na-22 
# level energy          : - 
# MF-MT number          : 3 - 10 
# first author          : M.Gloris 
# institute             : (2GERUH): University Hannover (previously Tech.University Hannover) 
# reference             : (T,Gloris,1998) 
# year                  : 1998 
# facility              : (SYNCH): Synchrotron 
# git                   : https://github.com/IAEA-NDS/exfor_master/blob/main/exforall/O18/O1881.x4 
# nds                   : https://nds.iaea.org/EXFOR/O1881
#
#       E_in(MeV)       dE_in(MeV)            XS(B)           dXS(B)
      3.25000E+02      1.00000E+00      7.52000E-05      1.26000E-05
      3.27000E+02      1.00000E+00      7.88000E-05      1.59000E-05
      3.28000E+02      1.00000E+00      7.83000E-05      1.38000E-05
      3.29000E+02      1.00000E+00      8.07000E-05      1.20000E-05
      3.96000E+02      1.00000E+00      1.31000E-04      1.80000E-05
      3.96000E+02      1.00000E+00      1.39000E-04      1.90000E-05
      3.98000E+02      1.00000E+00      1.40000E-04      1.90000E-05
      3.98000E+02      1.00000E+00      1.39000E-04      2.00000E-05
      3.99000E+02      1.00000E+00      1.28000E-04      1.70000E-05
      5.46000E+02      2.00000E+00      3.07000E-04      5.00000E-05
      5.48000E+02      2.00000E+00      3.46000E-04      4.80000E-05
      5.67000E+02      1.00000E+00      5.53000E-04      9.60000E-05
      5.92000E+02      1.00000E+00      5.28000E-04      7.40000E-05
      5.96000E+02      1.00000E+00      4.28000E-04      5.50000E-05
      5.99000E+02      1.00000E+00      4.22000E-04      5.40000E-05
      7.53000E+02      2.00000E+00      7.39000E-04      1.16000E-04
      7.54000E+02      2.00000E+00      8.34000E-04      1.22000E-04
      7.70000E+02      1.00000E+00      9.08000E-04      1.31000E-04
      7.92000E+02      1.00000E+00      9.08000E-04      1.12000E-04
      7.96000E+02      1.00000E+00      8.09000E-04      9.90000E-05
      7.99000E+02      1.00000E+00      8.15000E-04      9.90000E-05
      1.19000E+03      1.00000E+00      1.69000E-03      2.10000E-04
      1.19000E+03      1.00000E+00      1.72000E-03      2.10000E-04
      1.60000E+03      2.00000E+00      2.46000E-03      3.00000E-04
      2.53000E+03      2.00000E+00      2.71000E-03      3.60000E-04
