# entry-subent-pointer  : E1988-010-0 
# EXFOR reaction        : (74-W-0(D,X)75-RE-181,,SIG) 
# incident energy       : 1.9700e+01 MeV - 3.9700e+01 MeV 
# target                : W-0 
# product               : Re-181 
# level energy          : - 
# MF-MT number          : 3 - 10 
# first author          : Nakao 
# institute             : (2JPNJAE): Japan Atomic Energy Agency (JAEA) 
# reference             : (J,NIM/A,562,785,2006) 
# year                  : 2006 
# facility              : (ISOCY): Isochronous cyclotron 
# git                   : https://github.com/IAEA-NDS/exfor_master/blob/main/exforall/E19/E1988.x4 
# nds                   : https://nds.iaea.org/EXFOR/E1988
#
#       E_in(MeV)         dE_in(MeV)        XS(B)             dXS(B)
        1.9700E+01        0.0000E+00        2.8700E-01        0.0000E+00
        2.0900E+01        0.0000E+00        3.3560E-01        0.0000E+00
        2.2100E+01        0.0000E+00        3.8670E-01        0.0000E+00
        2.2800E+01        0.0000E+00        3.8590E-01        0.0000E+00
        2.3300E+01        0.0000E+00        3.7900E-01        0.0000E+00
        2.4900E+01        0.0000E+00        4.5170E-01        0.0000E+00
        2.5500E+01        0.0000E+00        4.8590E-01        0.0000E+00
        2.6000E+01        0.0000E+00        4.4010E-01        0.0000E+00
        2.7400E+01        0.0000E+00        4.7320E-01        0.0000E+00
        2.8000E+01        0.0000E+00        4.7980E-01        0.0000E+00
        2.8400E+01        0.0000E+00        4.4890E-01        0.0000E+00
        2.9800E+01        0.0000E+00        4.3480E-01        0.0000E+00
        3.0300E+01        0.0000E+00        4.4940E-01        0.0000E+00
        3.0700E+01        0.0000E+00        3.8780E-01        0.0000E+00
        3.2000E+01        0.0000E+00        4.0370E-01        0.0000E+00
        3.2500E+01        0.0000E+00        4.1650E-01        0.0000E+00
        3.2900E+01        0.0000E+00        3.8260E-01        0.0000E+00
        3.4100E+01        0.0000E+00        3.9290E-01        0.0000E+00
        3.4800E+01        0.0000E+00        4.6250E-01        0.0000E+00
        3.5600E+01        0.0000E+00        4.6180E-01        0.0000E+00
        3.6500E+01        0.0000E+00        4.8280E-01        0.0000E+00
        3.7300E+01        0.0000E+00        5.3680E-01        0.0000E+00
        3.8100E+01        0.0000E+00        5.2870E-01        0.0000E+00
        3.8900E+01        0.0000E+00        5.2780E-01        0.0000E+00
        3.9700E+01        0.0000E+00        4.9990E-01        0.0000E+00
