# entry-subent-pointer  : 22402-005-0 
# EXFOR reaction        : ['92-U-238', ['N,F'], 'MASS,PRE,FY'] 
# incident energy       : 3.0000e+00 MeV 
# target                : U-238 
# product               : 64.0 <= A <= 175.0 
# level energy          : - 
# MF-MT number          : 8 - 460 
# first author          : F.Vives 
# institute             : (2ZZZGEL): EC Joint Research Centre (EC-JRC), Geel 
# reference             : (J,NP/A,662,63,2000) 
# year                  : 2000 
# facility              : (VDG): Van de Graaff 
# git                   : https://github.com/IAEA-NDS/exfor_master/blob/main/exforall/224/22402.x4 
# nds                   : https://nds.iaea.org/EXFOR/22402
#
# Charge(No Dim.)    Mass(No Dim.)  Isomer(No Dim.)    Yield(%/fiss)   dYield(%/fiss)
                              64.0                       1.70870E-05      0.00000E+00
                              67.0                       1.70870E-05      0.00000E+00
                              70.0                       3.41740E-05      0.00000E+00
                              71.0                       3.41740E-05      0.00000E+00
                              73.0                       1.70870E-05      0.00000E+00
                              76.0                       3.41740E-05      0.00000E+00
                              77.0                       1.36696E-04      0.00000E+00
                              78.0                       1.36696E-04      0.00000E+00
                              79.0                       2.39218E-04      0.00000E+00
                              80.0                       3.24653E-04      0.00000E+00
                              81.0                       4.95523E-04      0.00000E+00
                              82.0                       9.91046E-04      0.00000E+00
                              83.0                       2.23839E-03      0.00000E+00
                              84.0                       4.23757E-03      0.00000E+00
                              85.0                       5.79249E-03      0.00000E+00
                              86.0                       8.25302E-03      0.00000E+00
                              87.0                       1.06622E-02      0.00000E+00
                              88.0                       1.28665E-02      0.00000E+00
                              89.0                       1.77875E-02      0.00000E+00
                              90.0                       2.24523E-02      0.00000E+00
                              91.0                       2.86036E-02      0.00000E+00
                              92.0                       3.12008E-02      0.00000E+00
                              93.0                       3.49771E-02      0.00000E+00
                              94.0                       4.16239E-02      0.00000E+00
                              95.0                       4.49730E-02      0.00000E+00
                              96.0                       4.97573E-02      0.00000E+00
                              97.0                       5.27646E-02      0.00000E+00
                              98.0                       5.34481E-02      0.00000E+00
                              99.0                       5.70706E-02      0.00000E+00
                             100.0                       5.97532E-02      0.00000E+00
                             101.0                       6.01120E-02      0.00000E+00
                             102.0                       6.27264E-02      0.00000E+00
                             103.0                       6.10006E-02      0.00000E+00
                             104.0                       6.00608E-02      0.00000E+00
                             105.0                       5.12781E-02      0.00000E+00
                             106.0                       4.53830E-02      0.00000E+00
                             107.0                       3.77451E-02      0.00000E+00
                             108.0                       3.01585E-02      0.00000E+00
                             109.0                       1.95817E-02      0.00000E+00
                             110.0                       1.34816E-02      0.00000E+00
                             111.0                       7.62080E-03      0.00000E+00
                             112.0                       3.89583E-03      0.00000E+00
                             113.0                       2.46052E-03      0.00000E+00
                             114.0                       1.33278E-03      0.00000E+00
                             115.0                       6.83480E-04      0.00000E+00
                             116.0                       6.49306E-04      0.00000E+00
                             117.0                       2.73392E-04      0.00000E+00
                             118.0                       3.58827E-04      0.00000E+00
                             119.0                       2.56305E-04      0.00000E+00
                             120.0                       2.56305E-04      0.00000E+00
                             121.0                       3.58827E-04      0.00000E+00
                             122.0                       2.73392E-04      0.00000E+00
                             123.0                       6.49306E-04      0.00000E+00
                             124.0                       6.83480E-04      0.00000E+00
                             125.0                       1.33278E-03      0.00000E+00
                             126.0                       2.46052E-03      0.00000E+00
                             127.0                       3.89583E-03      0.00000E+00
                             128.0                       7.62080E-03      0.00000E+00
                             129.0                       1.34816E-02      0.00000E+00
                             130.0                       1.95817E-02      0.00000E+00
                             131.0                       3.01585E-02      0.00000E+00
                             132.0                       3.77451E-02      0.00000E+00
                             133.0                       4.53830E-02      0.00000E+00
                             134.0                       5.12781E-02      0.00000E+00
                             135.0                       6.00608E-02      0.00000E+00
                             136.0                       6.10006E-02      0.00000E+00
                             137.0                       6.27264E-02      0.00000E+00
                             138.0                       6.01120E-02      0.00000E+00
                             139.0                       5.97532E-02      0.00000E+00
                             140.0                       5.70706E-02      0.00000E+00
                             141.0                       5.34481E-02      0.00000E+00
                             142.0                       5.27646E-02      0.00000E+00
                             143.0                       4.97573E-02      0.00000E+00
                             144.0                       4.49730E-02      0.00000E+00
                             145.0                       4.16239E-02      0.00000E+00
                             146.0                       3.49771E-02      0.00000E+00
                             147.0                       3.12008E-02      0.00000E+00
                             148.0                       2.86036E-02      0.00000E+00
                             149.0                       2.24523E-02      0.00000E+00
                             150.0                       1.77875E-02      0.00000E+00
                             151.0                       1.28665E-02      0.00000E+00
                             152.0                       1.06622E-02      0.00000E+00
                             153.0                       8.25302E-03      0.00000E+00
                             154.0                       5.79249E-03      0.00000E+00
                             155.0                       4.23757E-03      0.00000E+00
                             156.0                       2.23839E-03      0.00000E+00
                             157.0                       9.91046E-04      0.00000E+00
                             158.0                       4.95523E-04      0.00000E+00
                             159.0                       3.24653E-04      0.00000E+00
                             160.0                       2.39218E-04      0.00000E+00
                             161.0                       1.36696E-04      0.00000E+00
                             162.0                       1.36696E-04      0.00000E+00
                             163.0                       3.41740E-05      0.00000E+00
                             166.0                       1.70870E-05      0.00000E+00
                             168.0                       3.41740E-05      0.00000E+00
                             169.0                       3.41740E-05      0.00000E+00
                             172.0                       1.70870E-05      0.00000E+00
                             175.0                       1.70870E-05      0.00000E+00
