# entry-subent-pointer  : 22799-003-0 
# EXFOR reaction        : ['92-U-238', ['N,F'], 'MASS,PRE,FY'] 
# incident energy       : 2.0000e+01 MeV 
# target                : U-238 
# product               : 72.0 <= A <= 164.0 
# level energy          : - 
# MF-MT number          : 8 - 460 
# first author          : C.M.Zoeller 
# institute             : (2GERJUL): Forschungszentrum Juelich, Juelich 
# reference             : (T,ZOELLER,1995) 
# year                  : 1995 
# facility              : (LINAC): Linear accelerator 
# git                   : https://github.com/IAEA-NDS/exfor_master/blob/main/exforall/227/22799.x4 
# nds                   : https://nds.iaea.org/EXFOR/22799
#
# Charge(No Dim.)    Mass(No Dim.)  Isomer(No Dim.)    Yield(%/fiss)   dYield(%/fiss)
                              72.0                       2.00000E-04      7.00000E-05
                              74.0                       7.00000E-04      1.30000E-04
                              76.0                       9.00000E-04      1.50000E-04
                              78.0                       2.10000E-03      2.30000E-04
                              80.0                       3.70000E-03      3.00000E-04
                              82.0                       5.50000E-03      3.70000E-04
                              84.0                       8.80000E-03      4.70000E-04
                              86.0                       1.44000E-02      6.00000E-04
                              88.0                       1.88000E-02      6.90000E-04
                              90.0                       2.81000E-02      8.50000E-04
                              92.0                       3.41000E-02      9.30000E-04
                              94.0                       4.05000E-02      1.01000E-03
                              96.0                       4.50000E-02      1.07000E-03
                              98.0                       4.82000E-02      1.11000E-03
                             100.0                       4.66000E-02      1.09000E-03
                             102.0                       4.49000E-02      1.07000E-03
                             104.0                       3.91000E-02      1.00000E-03
                             106.0                       3.05000E-02      8.80000E-04
                             108.0                       2.56000E-02      8.10000E-04
                             110.0                       1.87000E-02      6.90000E-04
                             112.0                       1.69000E-02      6.60000E-04
                             114.0                       1.57000E-02      6.30000E-04
                             116.0                       1.29000E-02      5.70000E-04
                             118.0                       1.26000E-02      5.70000E-04
                             120.0                       1.68000E-02      6.50000E-04
                             122.0                       1.69000E-02      6.50000E-04
                             124.0                       2.02000E-02      7.20000E-04
                             126.0                       2.72000E-02      8.30000E-04
                             128.0                       3.24000E-02      9.10000E-04
                             130.0                       4.09000E-02      1.02000E-03
                             132.0                       4.57000E-02      1.08000E-03
                             134.0                       4.73000E-02      1.10000E-03
                             136.0                       4.73000E-02      1.10000E-03
                             138.0                       4.39000E-02      1.06000E-03
                             140.0                       3.90000E-02      9.90000E-04
                             142.0                       3.32000E-02      9.20000E-04
                             144.0                       2.50000E-02      8.00000E-04
                             146.0                       1.79000E-02      6.70000E-04
                             148.0                       1.26000E-02      5.60000E-04
                             150.0                       8.10000E-03      4.50000E-04
                             152.0                       4.80000E-03      3.50000E-04
                             154.0                       3.30000E-03      2.90000E-04
                             156.0                       1.60000E-03      2.00000E-04
                             158.0                       1.10000E-03      1.60000E-04
                             160.0                       3.00000E-04      9.00000E-05
                             162.0                       2.00000E-04      6.00000E-05
                             164.0                       0.00000E+00      3.00000E-05
