# entry-subent-pointer  : 22402-005-0 
# EXFOR reaction        : ['92-U-238', ['N,F'], 'MASS,PRE,FY'] 
# incident energy       : 3.8000e+00 MeV 
# target                : U-238 
# product               : 62.0 <= A <= 177.0 
# level energy          : - 
# MF-MT number          : 8 - 460 
# first author          : F.Vives 
# institute             : (2ZZZGEL): EC Joint Research Centre (EC-JRC), Geel 
# reference             : (J,NP/A,662,63,2000) 
# year                  : 2000 
# facility              : (VDG): Van de Graaff 
# git                   : https://github.com/IAEA-NDS/exfor_master/blob/main/exforall/224/22402.x4 
# nds                   : https://nds.iaea.org/EXFOR/22402
#
# Charge(No Dim.)    Mass(No Dim.)  Isomer(No Dim.)    Yield(%/fiss)   dYield(%/fiss)
                              62.0                       5.06034E-05      0.00000E+00
                              68.0                       2.53017E-05      0.00000E+00
                              70.0                       2.53017E-05      0.00000E+00
                              73.0                       2.53017E-05      0.00000E+00
                              74.0                       1.01206E-04      0.00000E+00
                              75.0                       1.51810E-04      0.00000E+00
                              76.0                       1.51810E-04      0.00000E+00
                              77.0                       2.53017E-04      0.00000E+00
                              78.0                       4.04827E-04      0.00000E+00
                              79.0                       7.33749E-04      0.00000E+00
                              80.0                       7.84353E-04      0.00000E+00
                              81.0                       1.21448E-03      0.00000E+00
                              82.0                       1.92293E-03      0.00000E+00
                              83.0                       3.69405E-03      0.00000E+00
                              84.0                       4.02297E-03      0.00000E+00
                              85.0                       5.71818E-03      0.00000E+00
                              86.0                       7.59051E-03      0.00000E+00
                              87.0                       1.03484E-02      0.00000E+00
                              88.0                       1.24737E-02      0.00000E+00
                              89.0                       1.65726E-02      0.00000E+00
                              90.0                       2.19365E-02      0.00000E+00
                              91.0                       2.66680E-02      0.00000E+00
                              92.0                       3.17283E-02      0.00000E+00
                              93.0                       3.54730E-02      0.00000E+00
                              94.0                       4.18237E-02      0.00000E+00
                              95.0                       4.67575E-02      0.00000E+00
                              96.0                       4.85287E-02      0.00000E+00
                              97.0                       5.22986E-02      0.00000E+00
                              98.0                       5.53601E-02      0.00000E+00
                              99.0                       5.78650E-02      0.00000E+00
                             100.0                       5.73843E-02      0.00000E+00
                             101.0                       6.06229E-02      0.00000E+00
                             102.0                       6.10277E-02      0.00000E+00
                             103.0                       6.29000E-02      0.00000E+00
                             104.0                       5.68023E-02      0.00000E+00
                             105.0                       5.10082E-02      0.00000E+00
                             106.0                       4.71118E-02      0.00000E+00
                             107.0                       3.74212E-02      0.00000E+00
                             108.0                       2.74776E-02      0.00000E+00
                             109.0                       1.93811E-02      0.00000E+00
                             110.0                       1.33593E-02      0.00000E+00
                             111.0                       8.04594E-03      0.00000E+00
                             112.0                       4.83262E-03      0.00000E+00
                             113.0                       2.73258E-03      0.00000E+00
                             114.0                       1.79642E-03      0.00000E+00
                             115.0                       9.86767E-04      0.00000E+00
                             116.0                       7.59051E-04      0.00000E+00
                             117.0                       5.56637E-04      0.00000E+00
                             118.0                       5.81939E-04      0.00000E+00
                             119.0                       5.06034E-04      0.00000E+00
                             120.0                       5.06034E-04      0.00000E+00
                             121.0                       5.81939E-04      0.00000E+00
                             122.0                       5.56637E-04      0.00000E+00
                             123.0                       7.59051E-04      0.00000E+00
                             124.0                       9.86767E-04      0.00000E+00
                             125.0                       1.79642E-03      0.00000E+00
                             126.0                       2.73258E-03      0.00000E+00
                             127.0                       4.83262E-03      0.00000E+00
                             128.0                       8.04594E-03      0.00000E+00
                             129.0                       1.33593E-02      0.00000E+00
                             130.0                       1.93811E-02      0.00000E+00
                             131.0                       2.74776E-02      0.00000E+00
                             132.0                       3.74212E-02      0.00000E+00
                             133.0                       4.71118E-02      0.00000E+00
                             134.0                       5.10082E-02      0.00000E+00
                             135.0                       5.68023E-02      0.00000E+00
                             136.0                       6.29000E-02      0.00000E+00
                             137.0                       6.10277E-02      0.00000E+00
                             138.0                       6.06229E-02      0.00000E+00
                             139.0                       5.73843E-02      0.00000E+00
                             140.0                       5.78650E-02      0.00000E+00
                             141.0                       5.53601E-02      0.00000E+00
                             142.0                       5.22986E-02      0.00000E+00
                             143.0                       4.85287E-02      0.00000E+00
                             144.0                       4.67575E-02      0.00000E+00
                             145.0                       4.18237E-02      0.00000E+00
                             146.0                       3.54730E-02      0.00000E+00
                             147.0                       3.17283E-02      0.00000E+00
                             148.0                       2.66680E-02      0.00000E+00
                             149.0                       2.19365E-02      0.00000E+00
                             150.0                       1.65726E-02      0.00000E+00
                             151.0                       1.24737E-02      0.00000E+00
                             152.0                       1.03484E-02      0.00000E+00
                             153.0                       7.59051E-03      0.00000E+00
                             154.0                       5.71818E-03      0.00000E+00
                             155.0                       4.02297E-03      0.00000E+00
                             156.0                       3.69405E-03      0.00000E+00
                             157.0                       1.92293E-03      0.00000E+00
                             158.0                       1.21448E-03      0.00000E+00
                             159.0                       7.84353E-04      0.00000E+00
                             160.0                       7.33749E-04      0.00000E+00
                             161.0                       4.04827E-04      0.00000E+00
                             162.0                       2.53017E-04      0.00000E+00
                             163.0                       1.51810E-04      0.00000E+00
                             164.0                       1.51810E-04      0.00000E+00
                             165.0                       1.01206E-04      0.00000E+00
                             166.0                       2.53017E-05      0.00000E+00
                             169.0                       2.53017E-05      0.00000E+00
                             171.0                       2.53017E-05      0.00000E+00
                             177.0                       5.06034E-05      0.00000E+00
