# entry-subent-pointer  : 22799-003-0 
# EXFOR reaction        : ['92-U-238', ['N,F'], 'MASS,PRE,FY'] 
# incident energy       : 1.3000e+01 MeV 
# target                : U-238 
# product               : 70.0 <= A <= 168.0 
# level energy          : - 
# MF-MT number          : 8 - 460 
# first author          : C.M.Zoeller 
# institute             : (2GERJUL): Forschungszentrum Juelich, Juelich 
# reference             : (T,ZOELLER,1995) 
# year                  : 1995 
# facility              : (LINAC): Linear accelerator 
# git                   : https://github.com/IAEA-NDS/exfor_master/blob/main/exforall/227/22799.x4 
# nds                   : https://nds.iaea.org/EXFOR/22799
#
# Charge(No Dim.)    Mass(No Dim.)  Isomer(No Dim.)    Yield(%/fiss)   dYield(%/fiss)
                              70.0                       1.00000E-04      4.00000E-05
                              74.0                       1.00000E-04      6.00000E-05
                              76.0                       3.00000E-04      8.00000E-05
                              78.0                       1.00000E-03      1.50000E-04
                              80.0                       1.70000E-03      2.00000E-04
                              82.0                       3.00000E-03      2.60000E-04
                              84.0                       5.40000E-03      3.60000E-04
                              86.0                       8.80000E-03      4.50000E-04
                              88.0                       1.24000E-02      5.40000E-04
                              90.0                       1.93000E-02      6.70000E-04
                              92.0                       2.85000E-02      8.20000E-04
                              94.0                       3.48000E-02      9.00000E-04
                              96.0                       4.31000E-02      1.00000E-03
                              98.0                       4.92000E-02      1.07000E-03
                             100.0                       5.21000E-02      1.11000E-03
                             102.0                       5.07000E-02      1.09000E-03
                             104.0                       4.67000E-02      1.05000E-03
                             106.0                       3.98000E-02      9.70000E-04
                             108.0                       3.17000E-02      8.60000E-04
                             110.0                       2.43000E-02      7.50000E-04
                             112.0                       1.57000E-02      6.10000E-04
                             114.0                       1.16000E-02      5.20000E-04
                             116.0                       1.05000E-02      5.00000E-04
                             118.0                       9.50000E-03      4.70000E-04
                             120.0                       9.30000E-03      4.70000E-04
                             122.0                       1.04000E-02      4.90000E-04
                             124.0                       1.13000E-02      5.10000E-04
                             126.0                       1.57000E-02      6.10000E-04
                             128.0                       2.36000E-02      7.40000E-04
                             130.0                       3.13000E-02      8.60000E-04
                             132.0                       3.97000E-02      9.70000E-04
                             134.0                       4.63000E-02      1.04000E-03
                             136.0                       5.05000E-02      1.09000E-03
                             138.0                       5.18000E-02      1.10000E-03
                             140.0                       4.99000E-02      1.08000E-03
                             142.0                       4.31000E-02      1.01000E-03
                             144.0                       3.51000E-02      9.10000E-04
                             146.0                       2.86000E-02      8.20000E-04
                             148.0                       2.00000E-02      6.80000E-04
                             150.0                       1.26000E-02      5.40000E-04
                             152.0                       9.00000E-03      4.60000E-04
                             154.0                       5.30000E-03      3.50000E-04
                             156.0                       3.20000E-03      2.80000E-04
                             158.0                       1.70000E-03      2.00000E-04
                             160.0                       1.10000E-03      1.60000E-04
                             162.0                       3.00000E-04      8.00000E-05
                             164.0                       1.00000E-04      6.00000E-05
                             166.0                       0.00000E+00      2.00000E-05
                             168.0                       1.00000E-04      4.00000E-05
