# entry-subent-pointer  : 22799-003-0 
# EXFOR reaction        : ['92-U-238', ['N,F'], 'MASS,PRE,FY'] 
# incident energy       : 1.6250e+01 MeV 
# target                : U-238 
# product               : 70.0 <= A <= 164.0 
# level energy          : - 
# MF-MT number          : 8 - 460 
# first author          : C.M.Zoeller 
# institute             : (2GERJUL): Forschungszentrum Juelich, Juelich 
# reference             : (T,ZOELLER,1995) 
# year                  : 1995 
# facility              : (LINAC): Linear accelerator 
# git                   : https://github.com/IAEA-NDS/exfor_master/blob/main/exforall/227/22799.x4 
# nds                   : https://nds.iaea.org/EXFOR/22799
#
# Charge(No Dim.)    Mass(No Dim.)  Isomer(No Dim.)    Yield(%/fiss)   dYield(%/fiss)
                              70.0                       1.00000E-04      4.00000E-05
                              72.0                       1.00000E-04      6.00000E-05
                              74.0                       6.00000E-04      1.20000E-04
                              76.0                       1.10000E-03      1.60000E-04
                              78.0                       1.80000E-03      2.10000E-04
                              80.0                       2.40000E-03      2.40000E-04
                              82.0                       5.70000E-03      3.70000E-04
                              84.0                       8.20000E-03      4.40000E-04
                              86.0                       1.31000E-02      5.60000E-04
                              88.0                       1.97000E-02      6.90000E-04
                              90.0                       2.88000E-02      8.30000E-04
                              92.0                       3.67000E-02      9.40000E-04
                              94.0                       4.22000E-02      1.01000E-03
                              96.0                       4.83000E-02      1.08000E-03
                              98.0                       4.85000E-02      1.08000E-03
                             100.0                       4.81000E-02      1.07000E-03
                             102.0                       4.43000E-02      1.03000E-03
                             104.0                       4.06000E-02      9.90000E-04
                             106.0                       3.17000E-02      8.70000E-04
                             108.0                       2.45000E-02      7.70000E-04
                             110.0                       1.78000E-02      6.50000E-04
                             112.0                       1.41000E-02      5.80000E-04
                             114.0                       1.19000E-02      5.30000E-04
                             116.0                       9.70000E-03      4.80000E-04
                             118.0                       9.90000E-03      4.90000E-04
                             120.0                       1.19000E-02      5.30000E-04
                             122.0                       1.44000E-02      5.90000E-04
                             124.0                       1.76000E-02      6.50000E-04
                             126.0                       2.46000E-02      7.70000E-04
                             128.0                       3.19000E-02      8.70000E-04
                             130.0                       4.06000E-02      9.90000E-04
                             132.0                       4.44000E-02      1.03000E-03
                             134.0                       4.82000E-02      1.07000E-03
                             136.0                       4.84000E-02      1.08000E-03
                             138.0                       4.81000E-02      1.07000E-03
                             140.0                       4.22000E-02      1.01000E-03
                             142.0                       3.66000E-02      9.40000E-04
                             144.0                       2.87000E-02      8.30000E-04
                             146.0                       1.97000E-02      6.90000E-04
                             148.0                       1.29000E-02      5.60000E-04
                             150.0                       8.30000E-03      4.50000E-04
                             152.0                       5.50000E-03      3.60000E-04
                             154.0                       2.50000E-03      2.50000E-04
                             156.0                       1.80000E-03      2.10000E-04
                             158.0                       1.10000E-03      1.60000E-04
                             160.0                       6.00000E-04      1.00000E-04
                             162.0                       1.00000E-04      6.00000E-05
                             164.0                       1.00000E-04      4.00000E-05
