# entry-subent-pointer  : 22402-005-0 
# EXFOR reaction        : ['92-U-238', ['N,F'], 'MASS,PRE,FY'] 
# incident energy       : 3.5000e+00 MeV 
# target                : U-238 
# product               : 61.0 <= A <= 178.0 
# level energy          : - 
# MF-MT number          : 8 - 460 
# first author          : F.Vives 
# institute             : (2ZZZGEL): EC Joint Research Centre (EC-JRC), Geel 
# reference             : (J,NP/A,662,63,2000) 
# year                  : 2000 
# facility              : (VDG): Van de Graaff 
# git                   : https://github.com/IAEA-NDS/exfor_master/blob/main/exforall/224/22402.x4 
# nds                   : https://nds.iaea.org/EXFOR/22402
#
# Charge(No Dim.)    Mass(No Dim.)  Isomer(No Dim.)    Yield(%/fiss)   dYield(%/fiss)
                              61.0                       1.60087E-05      0.00000E+00
                              64.0                       1.60087E-05      0.00000E+00
                              71.0                       3.20174E-05      0.00000E+00
                              72.0                       3.20174E-05      0.00000E+00
                              73.0                       4.80261E-05      0.00000E+00
                              75.0                       3.20174E-05      0.00000E+00
                              76.0                       3.20174E-05      0.00000E+00
                              77.0                       1.28069E-04      0.00000E+00
                              78.0                       8.00435E-05      0.00000E+00
                              79.0                       2.40130E-04      0.00000E+00
                              80.0                       4.96269E-04      0.00000E+00
                              81.0                       6.08330E-04      0.00000E+00
                              82.0                       9.44513E-04      0.00000E+00
                              83.0                       2.06512E-03      0.00000E+00
                              84.0                       4.37037E-03      0.00000E+00
                              85.0                       5.60304E-03      0.00000E+00
                              86.0                       7.66817E-03      0.00000E+00
                              87.0                       1.02775E-02      0.00000E+00
                              88.0                       1.30791E-02      0.00000E+00
                              89.0                       1.67771E-02      0.00000E+00
                              90.0                       2.27643E-02      0.00000E+00
                              91.0                       2.76630E-02      0.00000E+00
                              92.0                       3.28978E-02      0.00000E+00
                              93.0                       3.70761E-02      0.00000E+00
                              94.0                       4.14945E-02      0.00000E+00
                              95.0                       4.51125E-02      0.00000E+00
                              96.0                       4.85063E-02      0.00000E+00
                              97.0                       5.23324E-02      0.00000E+00
                              98.0                       5.48138E-02      0.00000E+00
                              99.0                       5.70390E-02      0.00000E+00
                             100.0                       5.87519E-02      0.00000E+00
                             101.0                       6.04328E-02      0.00000E+00
                             102.0                       6.15534E-02      0.00000E+00
                             103.0                       6.08170E-02      0.00000E+00
                             104.0                       5.75513E-02      0.00000E+00
                             105.0                       5.32929E-02      0.00000E+00
                             106.0                       4.73537E-02      0.00000E+00
                             107.0                       3.81327E-02      0.00000E+00
                             108.0                       2.78551E-02      0.00000E+00
                             109.0                       1.96747E-02      0.00000E+00
                             110.0                       1.30150E-02      0.00000E+00
                             111.0                       7.92431E-03      0.00000E+00
                             112.0                       4.45042E-03      0.00000E+00
                             113.0                       2.64143E-03      0.00000E+00
                             114.0                       1.56885E-03      0.00000E+00
                             115.0                       9.28505E-04      0.00000E+00
                             116.0                       5.44296E-04      0.00000E+00
                             117.0                       4.48243E-04      0.00000E+00
                             118.0                       5.12278E-04      0.00000E+00
                             119.0                       3.04165E-04      0.00000E+00
                             120.0                       3.04165E-04      0.00000E+00
                             121.0                       5.12278E-04      0.00000E+00
                             122.0                       4.48243E-04      0.00000E+00
                             123.0                       5.44296E-04      0.00000E+00
                             124.0                       9.28505E-04      0.00000E+00
                             125.0                       1.56885E-03      0.00000E+00
                             126.0                       2.64143E-03      0.00000E+00
                             127.0                       4.45042E-03      0.00000E+00
                             128.0                       7.92431E-03      0.00000E+00
                             129.0                       1.30150E-02      0.00000E+00
                             130.0                       1.96747E-02      0.00000E+00
                             131.0                       2.78551E-02      0.00000E+00
                             132.0                       3.81327E-02      0.00000E+00
                             133.0                       4.73537E-02      0.00000E+00
                             134.0                       5.32929E-02      0.00000E+00
                             135.0                       5.75513E-02      0.00000E+00
                             136.0                       6.08170E-02      0.00000E+00
                             137.0                       6.15534E-02      0.00000E+00
                             138.0                       6.04328E-02      0.00000E+00
                             139.0                       5.87519E-02      0.00000E+00
                             140.0                       5.70390E-02      0.00000E+00
                             141.0                       5.48138E-02      0.00000E+00
                             142.0                       5.23324E-02      0.00000E+00
                             143.0                       4.85063E-02      0.00000E+00
                             144.0                       4.51125E-02      0.00000E+00
                             145.0                       4.14945E-02      0.00000E+00
                             146.0                       3.70761E-02      0.00000E+00
                             147.0                       3.28978E-02      0.00000E+00
                             148.0                       2.76630E-02      0.00000E+00
                             149.0                       2.27643E-02      0.00000E+00
                             150.0                       1.67771E-02      0.00000E+00
                             151.0                       1.30791E-02      0.00000E+00
                             152.0                       1.02775E-02      0.00000E+00
                             153.0                       7.66817E-03      0.00000E+00
                             154.0                       5.60304E-03      0.00000E+00
                             155.0                       4.37037E-03      0.00000E+00
                             156.0                       2.06512E-03      0.00000E+00
                             157.0                       9.44513E-04      0.00000E+00
                             158.0                       6.08330E-04      0.00000E+00
                             159.0                       4.96269E-04      0.00000E+00
                             160.0                       2.40130E-04      0.00000E+00
                             161.0                       8.00435E-05      0.00000E+00
                             162.0                       1.28069E-04      0.00000E+00
                             163.0                       3.20174E-05      0.00000E+00
                             164.0                       3.20174E-05      0.00000E+00
                             166.0                       4.80261E-05      0.00000E+00
                             167.0                       3.20174E-05      0.00000E+00
                             168.0                       3.20174E-05      0.00000E+00
                             175.0                       1.60087E-05      0.00000E+00
                             178.0                       1.60087E-05      0.00000E+00
