# entry-subent-pointer  : 22402-005-0 
# EXFOR reaction        : ['92-U-238', ['N,F'], 'MASS,PRE,FY'] 
# incident energy       : 1.6000e+00 MeV 
# target                : U-238 
# product               : 64.0 <= A <= 175.0 
# level energy          : - 
# MF-MT number          : 8 - 460 
# first author          : F.Vives 
# institute             : (2ZZZGEL): EC Joint Research Centre (EC-JRC), Geel 
# reference             : (J,NP/A,662,63,2000) 
# year                  : 2000 
# facility              : (VDG): Van de Graaff 
# git                   : https://github.com/IAEA-NDS/exfor_master/blob/main/exforall/224/22402.x4 
# nds                   : https://nds.iaea.org/EXFOR/22402
#
# Charge(No Dim.)    Mass(No Dim.)  Isomer(No Dim.)    Yield(%/fiss)   dYield(%/fiss)
                              64.0                       3.55296E-05      0.00000E+00
                              65.0                       1.77648E-05      0.00000E+00
                              67.0                       1.77648E-05      0.00000E+00
                              71.0                       1.77648E-05      0.00000E+00
                              73.0                       5.32944E-05      0.00000E+00
                              74.0                       1.77648E-05      0.00000E+00
                              75.0                       1.77648E-05      0.00000E+00
                              76.0                       8.88241E-05      0.00000E+00
                              77.0                       8.88241E-05      0.00000E+00
                              78.0                       8.88241E-05      0.00000E+00
                              79.0                       1.42118E-04      0.00000E+00
                              80.0                       2.48707E-04      0.00000E+00
                              81.0                       4.61885E-04      0.00000E+00
                              82.0                       7.63887E-04      0.00000E+00
                              83.0                       1.82977E-03      0.00000E+00
                              84.0                       4.35238E-03      0.00000E+00
                              85.0                       5.41827E-03      0.00000E+00
                              86.0                       7.49675E-03      0.00000E+00
                              87.0                       9.73512E-03      0.00000E+00
                              88.0                       1.40875E-02      0.00000E+00
                              89.0                       1.80313E-02      0.00000E+00
                              90.0                       2.20461E-02      0.00000E+00
                              91.0                       2.63630E-02      0.00000E+00
                              92.0                       3.23497E-02      0.00000E+00
                              93.0                       3.53520E-02      0.00000E+00
                              94.0                       4.09479E-02      0.00000E+00
                              95.0                       4.32573E-02      0.00000E+00
                              96.0                       4.65260E-02      0.00000E+00
                              97.0                       5.18555E-02      0.00000E+00
                              98.0                       5.33833E-02      0.00000E+00
                              99.0                       5.55683E-02      0.00000E+00
                             100.0                       5.96898E-02      0.00000E+00
                             101.0                       6.24789E-02      0.00000E+00
                             102.0                       6.36336E-02      0.00000E+00
                             103.0                       6.32605E-02      0.00000E+00
                             104.0                       6.17150E-02      0.00000E+00
                             105.0                       5.64921E-02      0.00000E+00
                             106.0                       4.66326E-02      0.00000E+00
                             107.0                       4.02728E-02      0.00000E+00
                             108.0                       2.99692E-02      0.00000E+00
                             109.0                       1.95590E-02      0.00000E+00
                             110.0                       1.19202E-02      0.00000E+00
                             111.0                       6.23545E-03      0.00000E+00
                             112.0                       3.71284E-03      0.00000E+00
                             113.0                       1.61659E-03      0.00000E+00
                             114.0                       9.59300E-04      0.00000E+00
                             115.0                       5.86239E-04      0.00000E+00
                             116.0                       2.48707E-04      0.00000E+00
                             117.0                       1.42118E-04      0.00000E+00
                             118.0                       1.24353E-04      0.00000E+00
                             119.0                       8.88241E-05      0.00000E+00
                             120.0                       8.88241E-05      0.00000E+00
                             121.0                       1.24353E-04      0.00000E+00
                             122.0                       1.42118E-04      0.00000E+00
                             123.0                       2.48707E-04      0.00000E+00
                             124.0                       5.86239E-04      0.00000E+00
                             125.0                       9.59300E-04      0.00000E+00
                             126.0                       1.61659E-03      0.00000E+00
                             127.0                       3.71284E-03      0.00000E+00
                             128.0                       6.23545E-03      0.00000E+00
                             129.0                       1.19202E-02      0.00000E+00
                             130.0                       1.95590E-02      0.00000E+00
                             131.0                       2.99692E-02      0.00000E+00
                             132.0                       4.02728E-02      0.00000E+00
                             133.0                       4.66326E-02      0.00000E+00
                             134.0                       5.64921E-02      0.00000E+00
                             135.0                       6.17150E-02      0.00000E+00
                             136.0                       6.32605E-02      0.00000E+00
                             137.0                       6.36336E-02      0.00000E+00
                             138.0                       6.24789E-02      0.00000E+00
                             139.0                       5.96898E-02      0.00000E+00
                             140.0                       5.55683E-02      0.00000E+00
                             141.0                       5.33833E-02      0.00000E+00
                             142.0                       5.18555E-02      0.00000E+00
                             143.0                       4.65260E-02      0.00000E+00
                             144.0                       4.32573E-02      0.00000E+00
                             145.0                       4.09479E-02      0.00000E+00
                             146.0                       3.53520E-02      0.00000E+00
                             147.0                       3.23497E-02      0.00000E+00
                             148.0                       2.63630E-02      0.00000E+00
                             149.0                       2.20461E-02      0.00000E+00
                             150.0                       1.80313E-02      0.00000E+00
                             151.0                       1.40875E-02      0.00000E+00
                             152.0                       9.73512E-03      0.00000E+00
                             153.0                       7.49675E-03      0.00000E+00
                             154.0                       5.41827E-03      0.00000E+00
                             155.0                       4.35238E-03      0.00000E+00
                             156.0                       1.82977E-03      0.00000E+00
                             157.0                       7.63887E-04      0.00000E+00
                             158.0                       4.61885E-04      0.00000E+00
                             159.0                       2.48707E-04      0.00000E+00
                             160.0                       1.42118E-04      0.00000E+00
                             161.0                       8.88241E-05      0.00000E+00
                             162.0                       8.88241E-05      0.00000E+00
                             163.0                       8.88241E-05      0.00000E+00
                             164.0                       1.77648E-05      0.00000E+00
                             165.0                       1.77648E-05      0.00000E+00
                             166.0                       5.32944E-05      0.00000E+00
                             168.0                       1.77648E-05      0.00000E+00
                             172.0                       1.77648E-05      0.00000E+00
                             174.0                       1.77648E-05      0.00000E+00
                             175.0                       3.55296E-05      0.00000E+00
