# entry-subent-pointer  : 22402-005-0 
# EXFOR reaction        : ['92-U-238', ['N,F'], 'MASS,PRE,FY'] 
# incident energy       : 1.2000e+00 MeV 
# target                : U-238 
# product               : 67.0 <= A <= 172.0 
# level energy          : - 
# MF-MT number          : 8 - 460 
# first author          : F.Vives 
# institute             : (2ZZZGEL): EC Joint Research Centre (EC-JRC), Geel 
# reference             : (J,NP/A,662,63,2000) 
# year                  : 2000 
# facility              : (VDG): Van de Graaff 
# git                   : https://github.com/IAEA-NDS/exfor_master/blob/main/exforall/224/22402.x4 
# nds                   : https://nds.iaea.org/EXFOR/22402
#
# Charge(No Dim.)    Mass(No Dim.)  Isomer(No Dim.)    Yield(%/fiss)   dYield(%/fiss)
                              67.0                       1.12095E-04      0.00000E+00
                              71.0                       1.12095E-04      0.00000E+00
                              77.0                       2.24190E-04      0.00000E+00
                              78.0                       3.36285E-04      0.00000E+00
                              79.0                       3.36285E-04      0.00000E+00
                              80.0                       6.72570E-04      0.00000E+00
                              81.0                       1.00885E-03      0.00000E+00
                              82.0                       1.56933E-03      0.00000E+00
                              83.0                       2.35399E-03      0.00000E+00
                              84.0                       3.81123E-03      0.00000E+00
                              85.0                       4.37170E-03      0.00000E+00
                              86.0                       8.07084E-03      0.00000E+00
                              87.0                       9.19179E-03      0.00000E+00
                              88.0                       1.37876E-02      0.00000E+00
                              89.0                       1.53570E-02      0.00000E+00
                              90.0                       2.15222E-02      0.00000E+00
                              91.0                       2.53334E-02      0.00000E+00
                              92.0                       2.64544E-02      0.00000E+00
                              93.0                       3.55341E-02      0.00000E+00
                              94.0                       3.74397E-02      0.00000E+00
                              95.0                       4.01300E-02      0.00000E+00
                              96.0                       4.47259E-02      0.00000E+00
                              97.0                       4.97702E-02      0.00000E+00
                              98.0                       5.90740E-02      0.00000E+00
                              99.0                       5.69442E-02      0.00000E+00
                             100.0                       6.47909E-02      0.00000E+00
                             101.0                       6.69207E-02      0.00000E+00
                             102.0                       6.45667E-02      0.00000E+00
                             103.0                       6.45667E-02      0.00000E+00
                             104.0                       5.95224E-02      0.00000E+00
                             105.0                       5.73926E-02      0.00000E+00
                             106.0                       5.21242E-02      0.00000E+00
                             107.0                       4.75283E-02      0.00000E+00
                             108.0                       3.01535E-02      0.00000E+00
                             109.0                       1.72626E-02      0.00000E+00
                             110.0                       9.19179E-03      0.00000E+00
                             111.0                       4.14751E-03      0.00000E+00
                             112.0                       2.35399E-03      0.00000E+00
                             113.0                       4.48380E-04      0.00000E+00
                             114.0                       3.36285E-04      0.00000E+00
                             115.0                       3.36285E-04      0.00000E+00
                             117.0                       1.12095E-04      0.00000E+00
                             122.0                       1.12095E-04      0.00000E+00
                             124.0                       3.36285E-04      0.00000E+00
                             125.0                       3.36285E-04      0.00000E+00
                             126.0                       4.48380E-04      0.00000E+00
                             127.0                       2.35399E-03      0.00000E+00
                             128.0                       4.14751E-03      0.00000E+00
                             129.0                       9.19179E-03      0.00000E+00
                             130.0                       1.72626E-02      0.00000E+00
                             131.0                       3.01535E-02      0.00000E+00
                             132.0                       4.75283E-02      0.00000E+00
                             133.0                       5.21242E-02      0.00000E+00
                             134.0                       5.73926E-02      0.00000E+00
                             135.0                       5.95224E-02      0.00000E+00
                             136.0                       6.45667E-02      0.00000E+00
                             137.0                       6.45667E-02      0.00000E+00
                             138.0                       6.69207E-02      0.00000E+00
                             139.0                       6.47909E-02      0.00000E+00
                             140.0                       5.69442E-02      0.00000E+00
                             141.0                       5.90740E-02      0.00000E+00
                             142.0                       4.97702E-02      0.00000E+00
                             143.0                       4.47259E-02      0.00000E+00
                             144.0                       4.01300E-02      0.00000E+00
                             145.0                       3.74397E-02      0.00000E+00
                             146.0                       3.55341E-02      0.00000E+00
                             147.0                       2.64544E-02      0.00000E+00
                             148.0                       2.53334E-02      0.00000E+00
                             149.0                       2.15222E-02      0.00000E+00
                             150.0                       1.53570E-02      0.00000E+00
                             151.0                       1.37876E-02      0.00000E+00
                             152.0                       9.19179E-03      0.00000E+00
                             153.0                       8.07084E-03      0.00000E+00
                             154.0                       4.37170E-03      0.00000E+00
                             155.0                       3.81123E-03      0.00000E+00
                             156.0                       2.35399E-03      0.00000E+00
                             157.0                       1.56933E-03      0.00000E+00
                             158.0                       1.00885E-03      0.00000E+00
                             159.0                       6.72570E-04      0.00000E+00
                             160.0                       3.36285E-04      0.00000E+00
                             161.0                       3.36285E-04      0.00000E+00
                             162.0                       2.24190E-04      0.00000E+00
                             168.0                       1.12095E-04      0.00000E+00
                             172.0                       1.12095E-04      0.00000E+00
