# entry-subent-pointer  : 22799-003-0 
# EXFOR reaction        : ['92-U-238', ['N,F'], 'MASS,PRE,FY'] 
# incident energy       : 3.5000e+00 MeV 
# target                : U-238 
# product               : 74.0 <= A <= 166.0 
# level energy          : - 
# MF-MT number          : 8 - 460 
# first author          : C.M.Zoeller 
# institute             : (2GERJUL): Forschungszentrum Juelich, Juelich 
# reference             : (T,ZOELLER,1995) 
# year                  : 1995 
# facility              : (LINAC): Linear accelerator 
# git                   : https://github.com/IAEA-NDS/exfor_master/blob/main/exforall/227/22799.x4 
# nds                   : https://nds.iaea.org/EXFOR/22799
#
# Charge(No Dim.)    Mass(No Dim.)  Isomer(No Dim.)    Yield(%/fiss)   dYield(%/fiss)
                              74.0                       1.00000E-04      2.00000E-05
                              76.0                       2.00000E-04      4.00000E-05
                              78.0                       5.00000E-04      6.00000E-05
                              80.0                       1.20000E-03      9.00000E-05
                              82.0                       2.20000E-03      1.20000E-04
                              84.0                       4.10000E-03      1.60000E-04
                              86.0                       7.30000E-03      2.10000E-04
                              88.0                       1.13000E-02      2.70000E-04
                              90.0                       1.89000E-02      3.50000E-04
                              92.0                       2.65000E-02      4.10000E-04
                              94.0                       3.64000E-02      4.80000E-04
                              96.0                       4.59000E-02      5.40000E-04
                              98.0                       5.44000E-02      5.90000E-04
                             100.0                       5.73000E-02      6.00000E-04
                             102.0                       5.76000E-02      6.00000E-04
                             104.0                       5.31000E-02      5.80000E-04
                             106.0                       4.43000E-02      5.30000E-04
                             108.0                       3.27000E-02      4.60000E-04
                             110.0                       2.21000E-02      3.70000E-04
                             112.0                       1.19000E-02      2.70000E-04
                             114.0                       5.90000E-03      1.90000E-04
                             116.0                       3.20000E-03      1.40000E-04
                             118.0                       2.40000E-03      1.20000E-04
                             120.0                       2.30000E-03      1.20000E-04
                             122.0                       2.60000E-03      1.30000E-04
                             124.0                       4.20000E-03      1.60000E-04
                             126.0                       8.60000E-03      2.30000E-04
                             128.0                       1.62000E-02      3.20000E-04
                             130.0                       2.74000E-02      4.20000E-04
                             132.0                       3.89000E-02      5.00000E-04
                             134.0                       4.96000E-02      5.60000E-04
                             136.0                       5.57000E-02      5.90000E-04
                             138.0                       5.81000E-02      6.10000E-04
                             140.0                       5.62000E-02      6.00000E-04
                             142.0                       5.05000E-02      5.70000E-04
                             144.0                       4.10000E-02      5.10000E-04
                             146.0                       3.14000E-02      4.50000E-04
                             148.0                       2.27000E-02      3.80000E-04
                             150.0                       1.47000E-02      3.10000E-04
                             152.0                       9.20000E-03      2.40000E-04
                             154.0                       5.50000E-03      1.90000E-04
                             156.0                       3.10000E-03      1.40000E-04
                             158.0                       1.50000E-03      1.00000E-04
                             160.0                       8.00000E-04      7.00000E-05
                             162.0                       3.00000E-04      4.00000E-05
                             164.0                       1.00000E-04      3.00000E-05
                             166.0                       1.00000E-04      2.00000E-05
