# entry-subent-pointer  : 22402-005-0 
# EXFOR reaction        : ['92-U-238', ['N,F'], 'MASS,PRE,FY'] 
# incident energy       : 2.5000e+00 MeV 
# target                : U-238 
# product               : 64.0 <= A <= 175.0 
# level energy          : - 
# MF-MT number          : 8 - 460 
# first author          : F.Vives 
# institute             : (2ZZZGEL): EC Joint Research Centre (EC-JRC), Geel 
# reference             : (J,NP/A,662,63,2000) 
# year                  : 2000 
# facility              : (VDG): Van de Graaff 
# git                   : https://github.com/IAEA-NDS/exfor_master/blob/main/exforall/224/22402.x4 
# nds                   : https://nds.iaea.org/EXFOR/22402
#
# Charge(No Dim.)    Mass(No Dim.)  Isomer(No Dim.)    Yield(%/fiss)   dYield(%/fiss)
                              64.0                       1.03843E-05      0.00000E+00
                              65.0                       1.03843E-05      0.00000E+00
                              67.0                       4.15372E-05      0.00000E+00
                              68.0                       1.03843E-05      0.00000E+00
                              69.0                       1.03843E-05      0.00000E+00
                              70.0                       2.07686E-05      0.00000E+00
                              71.0                       2.07686E-05      0.00000E+00
                              72.0                       1.03843E-05      0.00000E+00
                              74.0                       4.15372E-05      0.00000E+00
                              75.0                       1.03843E-05      0.00000E+00
                              76.0                       1.03843E-05      0.00000E+00
                              77.0                       1.03843E-05      0.00000E+00
                              78.0                       1.45380E-04      0.00000E+00
                              79.0                       1.97302E-04      0.00000E+00
                              80.0                       4.04988E-04      0.00000E+00
                              81.0                       4.77678E-04      0.00000E+00
                              82.0                       1.00727E-03      0.00000E+00
                              83.0                       1.96263E-03      0.00000E+00
                              84.0                       3.94604E-03      0.00000E+00
                              85.0                       5.64907E-03      0.00000E+00
                              86.0                       7.27941E-03      0.00000E+00
                              87.0                       1.06231E-02      0.00000E+00
                              88.0                       1.34684E-02      0.00000E+00
                              89.0                       1.72691E-02      0.00000E+00
                              90.0                       2.11944E-02      0.00000E+00
                              91.0                       2.72380E-02      0.00000E+00
                              92.0                       3.15787E-02      0.00000E+00
                              93.0                       3.72693E-02      0.00000E+00
                              94.0                       4.07169E-02      0.00000E+00
                              95.0                       4.44449E-02      0.00000E+00
                              96.0                       4.86609E-02      0.00000E+00
                              97.0                       5.17450E-02      0.00000E+00
                              98.0                       5.46111E-02      0.00000E+00
                              99.0                       5.87129E-02      0.00000E+00
                             100.0                       5.94814E-02      0.00000E+00
                             101.0                       6.19113E-02      0.00000E+00
                             102.0                       6.35209E-02      0.00000E+00
                             103.0                       6.21605E-02      0.00000E+00
                             104.0                       5.83287E-02      0.00000E+00
                             105.0                       5.51407E-02      0.00000E+00
                             106.0                       4.61167E-02      0.00000E+00
                             107.0                       3.75704E-02      0.00000E+00
                             108.0                       2.84426E-02      0.00000E+00
                             109.0                       1.91071E-02      0.00000E+00
                             110.0                       1.30842E-02      0.00000E+00
                             111.0                       7.86093E-03      0.00000E+00
                             112.0                       3.75912E-03      0.00000E+00
                             113.0                       1.99379E-03      0.00000E+00
                             114.0                       1.00727E-03      0.00000E+00
                             115.0                       5.91906E-04      0.00000E+00
                             116.0                       3.73835E-04      0.00000E+00
                             117.0                       3.11529E-04      0.00000E+00
                             118.0                       1.76533E-04      0.00000E+00
                             119.0                       2.49223E-04      0.00000E+00
                             120.0                       2.49223E-04      0.00000E+00
                             121.0                       1.76533E-04      0.00000E+00
                             122.0                       3.11529E-04      0.00000E+00
                             123.0                       3.73835E-04      0.00000E+00
                             124.0                       5.91906E-04      0.00000E+00
                             125.0                       1.00727E-03      0.00000E+00
                             126.0                       1.99379E-03      0.00000E+00
                             127.0                       3.75912E-03      0.00000E+00
                             128.0                       7.86093E-03      0.00000E+00
                             129.0                       1.30842E-02      0.00000E+00
                             130.0                       1.91071E-02      0.00000E+00
                             131.0                       2.84426E-02      0.00000E+00
                             132.0                       3.75704E-02      0.00000E+00
                             133.0                       4.61167E-02      0.00000E+00
                             134.0                       5.51407E-02      0.00000E+00
                             135.0                       5.83287E-02      0.00000E+00
                             136.0                       6.21605E-02      0.00000E+00
                             137.0                       6.35209E-02      0.00000E+00
                             138.0                       6.19113E-02      0.00000E+00
                             139.0                       5.94814E-02      0.00000E+00
                             140.0                       5.87129E-02      0.00000E+00
                             141.0                       5.46111E-02      0.00000E+00
                             142.0                       5.17450E-02      0.00000E+00
                             143.0                       4.86609E-02      0.00000E+00
                             144.0                       4.44449E-02      0.00000E+00
                             145.0                       4.07169E-02      0.00000E+00
                             146.0                       3.72693E-02      0.00000E+00
                             147.0                       3.15787E-02      0.00000E+00
                             148.0                       2.72380E-02      0.00000E+00
                             149.0                       2.11944E-02      0.00000E+00
                             150.0                       1.72691E-02      0.00000E+00
                             151.0                       1.34684E-02      0.00000E+00
                             152.0                       1.06231E-02      0.00000E+00
                             153.0                       7.27941E-03      0.00000E+00
                             154.0                       5.64907E-03      0.00000E+00
                             155.0                       3.94604E-03      0.00000E+00
                             156.0                       1.96263E-03      0.00000E+00
                             157.0                       1.00727E-03      0.00000E+00
                             158.0                       4.77678E-04      0.00000E+00
                             159.0                       4.04988E-04      0.00000E+00
                             160.0                       1.97302E-04      0.00000E+00
                             161.0                       1.45380E-04      0.00000E+00
                             162.0                       1.03843E-05      0.00000E+00
                             163.0                       1.03843E-05      0.00000E+00
                             164.0                       1.03843E-05      0.00000E+00
                             165.0                       4.15372E-05      0.00000E+00
                             167.0                       1.03843E-05      0.00000E+00
                             168.0                       2.07686E-05      0.00000E+00
                             169.0                       2.07686E-05      0.00000E+00
                             170.0                       1.03843E-05      0.00000E+00
                             171.0                       1.03843E-05      0.00000E+00
                             172.0                       4.15372E-05      0.00000E+00
                             174.0                       1.03843E-05      0.00000E+00
                             175.0                       1.03843E-05      0.00000E+00
