# entry-subent-pointer  : 22402-005-0 
# EXFOR reaction        : ['92-U-238', ['N,F'], 'MASS,PRE,FY'] 
# incident energy       : 4.0000e+00 MeV 
# target                : U-238 
# product               : 60.0 <= A <= 179.0 
# level energy          : - 
# MF-MT number          : 8 - 460 
# first author          : F.Vives 
# institute             : (2ZZZGEL): EC Joint Research Centre (EC-JRC), Geel 
# reference             : (J,NP/A,662,63,2000) 
# year                  : 2000 
# facility              : (VDG): Van de Graaff 
# git                   : https://github.com/IAEA-NDS/exfor_master/blob/main/exforall/224/22402.x4 
# nds                   : https://nds.iaea.org/EXFOR/22402
#
# Charge(No Dim.)    Mass(No Dim.)  Isomer(No Dim.)    Yield(%/fiss)   dYield(%/fiss)
                              60.0                       1.73382E-05      0.00000E+00
                              63.0                       1.73382E-05      0.00000E+00
                              65.0                       1.73382E-05      0.00000E+00
                              69.0                       1.73382E-05      0.00000E+00
                              70.0                       1.73382E-05      0.00000E+00
                              71.0                       3.46764E-05      0.00000E+00
                              72.0                       3.46764E-05      0.00000E+00
                              74.0                       3.46764E-05      0.00000E+00
                              75.0                       8.66911E-05      0.00000E+00
                              76.0                       5.20147E-05      0.00000E+00
                              77.0                       1.73382E-04      0.00000E+00
                              78.0                       2.08058E-04      0.00000E+00
                              79.0                       6.06838E-04      0.00000E+00
                              80.0                       7.10867E-04      0.00000E+00
                              81.0                       1.28302E-03      0.00000E+00
                              82.0                       2.09792E-03      0.00000E+00
                              83.0                       2.75677E-03      0.00000E+00
                              84.0                       4.17851E-03      0.00000E+00
                              85.0                       5.73895E-03      0.00000E+00
                              86.0                       7.69817E-03      0.00000E+00
                              87.0                       1.04202E-02      0.00000E+00
                              88.0                       1.38359E-02      0.00000E+00
                              89.0                       1.66620E-02      0.00000E+00
                              90.0                       2.24009E-02      0.00000E+00
                              91.0                       2.73944E-02      0.00000E+00
                              92.0                       3.28039E-02      0.00000E+00
                              93.0                       3.65836E-02      0.00000E+00
                              94.0                       4.04154E-02      0.00000E+00
                              95.0                       4.56515E-02      0.00000E+00
                              96.0                       4.90151E-02      0.00000E+00
                              97.0                       4.99687E-02      0.00000E+00
                              98.0                       5.43553E-02      0.00000E+00
                              99.0                       5.82911E-02      0.00000E+00
                             100.0                       5.85338E-02      0.00000E+00
                             101.0                       6.03023E-02      0.00000E+00
                             102.0                       6.05277E-02      0.00000E+00
                             103.0                       6.14640E-02      0.00000E+00
                             104.0                       5.73202E-02      0.00000E+00
                             105.0                       5.19106E-02      0.00000E+00
                             106.0                       4.49580E-02      0.00000E+00
                             107.0                       3.82308E-02      0.00000E+00
                             108.0                       2.95616E-02      0.00000E+00
                             109.0                       2.03030E-02      0.00000E+00
                             110.0                       1.28996E-02      0.00000E+00
                             111.0                       8.49573E-03      0.00000E+00
                             112.0                       4.35189E-03      0.00000E+00
                             113.0                       2.42735E-03      0.00000E+00
                             114.0                       1.61245E-03      0.00000E+00
                             115.0                       1.00561E-03      0.00000E+00
                             116.0                       6.58852E-04      0.00000E+00
                             117.0                       8.14897E-04      0.00000E+00
                             118.0                       5.54823E-04      0.00000E+00
                             119.0                       4.85470E-04      0.00000E+00
                             120.0                       4.85470E-04      0.00000E+00
                             121.0                       5.54823E-04      0.00000E+00
                             122.0                       8.14897E-04      0.00000E+00
                             123.0                       6.58852E-04      0.00000E+00
                             124.0                       1.00561E-03      0.00000E+00
                             125.0                       1.61245E-03      0.00000E+00
                             126.0                       2.42735E-03      0.00000E+00
                             127.0                       4.35189E-03      0.00000E+00
                             128.0                       8.49573E-03      0.00000E+00
                             129.0                       1.28996E-02      0.00000E+00
                             130.0                       2.03030E-02      0.00000E+00
                             131.0                       2.95616E-02      0.00000E+00
                             132.0                       3.82308E-02      0.00000E+00
                             133.0                       4.49580E-02      0.00000E+00
                             134.0                       5.19106E-02      0.00000E+00
                             135.0                       5.73202E-02      0.00000E+00
                             136.0                       6.14640E-02      0.00000E+00
                             137.0                       6.05277E-02      0.00000E+00
                             138.0                       6.03023E-02      0.00000E+00
                             139.0                       5.85338E-02      0.00000E+00
                             140.0                       5.82911E-02      0.00000E+00
                             141.0                       5.43553E-02      0.00000E+00
                             142.0                       4.99687E-02      0.00000E+00
                             143.0                       4.90151E-02      0.00000E+00
                             144.0                       4.56515E-02      0.00000E+00
                             145.0                       4.04154E-02      0.00000E+00
                             146.0                       3.65836E-02      0.00000E+00
                             147.0                       3.28039E-02      0.00000E+00
                             148.0                       2.73944E-02      0.00000E+00
                             149.0                       2.24009E-02      0.00000E+00
                             150.0                       1.66620E-02      0.00000E+00
                             151.0                       1.38359E-02      0.00000E+00
                             152.0                       1.04202E-02      0.00000E+00
                             153.0                       7.69817E-03      0.00000E+00
                             154.0                       5.73895E-03      0.00000E+00
                             155.0                       4.17851E-03      0.00000E+00
                             156.0                       2.75677E-03      0.00000E+00
                             157.0                       2.09792E-03      0.00000E+00
                             158.0                       1.28302E-03      0.00000E+00
                             159.0                       7.10867E-04      0.00000E+00
                             160.0                       6.06838E-04      0.00000E+00
                             161.0                       2.08058E-04      0.00000E+00
                             162.0                       1.73382E-04      0.00000E+00
                             163.0                       5.20147E-05      0.00000E+00
                             164.0                       8.66911E-05      0.00000E+00
                             165.0                       3.46764E-05      0.00000E+00
                             167.0                       3.46764E-05      0.00000E+00
                             168.0                       3.46764E-05      0.00000E+00
                             169.0                       1.73382E-05      0.00000E+00
                             170.0                       1.73382E-05      0.00000E+00
                             174.0                       1.73382E-05      0.00000E+00
                             176.0                       1.73382E-05      0.00000E+00
                             179.0                       1.73382E-05      0.00000E+00
