# entry-subent-pointer  : 22799-003-0 
# EXFOR reaction        : ['92-U-238', ['N,F'], 'MASS,PRE,FY'] 
# incident energy       : 3.9000e+01 MeV 
# target                : U-238 
# product               : 70.0 <= A <= 168.0 
# level energy          : - 
# MF-MT number          : 8 - 460 
# first author          : C.M.Zoeller 
# institute             : (2GERJUL): Forschungszentrum Juelich, Juelich 
# reference             : (T,ZOELLER,1995) 
# year                  : 1995 
# facility              : (LINAC): Linear accelerator 
# git                   : https://github.com/IAEA-NDS/exfor_master/blob/main/exforall/227/22799.x4 
# nds                   : https://nds.iaea.org/EXFOR/22799
#
# Charge(No Dim.)    Mass(No Dim.)  Isomer(No Dim.)    Yield(%/fiss)   dYield(%/fiss)
                              70.0                       1.00000E-04      3.00000E-05
                              72.0                       2.00000E-04      4.00000E-05
                              74.0                       3.00000E-04      6.00000E-05
                              76.0                       7.00000E-04      1.00000E-04
                              78.0                       1.30000E-03      1.30000E-04
                              80.0                       2.10000E-03      1.60000E-04
                              82.0                       3.50000E-03      2.10000E-04
                              84.0                       5.70000E-03      2.70000E-04
                              86.0                       9.50000E-03      3.50000E-04
                              88.0                       1.37000E-02      4.20000E-04
                              90.0                       2.02000E-02      5.10000E-04
                              92.0                       2.55000E-02      5.70000E-04
                              94.0                       3.19000E-02      6.40000E-04
                              96.0                       3.71000E-02      6.90000E-04
                              98.0                       4.07000E-02      7.20000E-04
                             100.0                       4.24000E-02      7.40000E-04
                             102.0                       4.20000E-02      7.30000E-04
                             104.0                       3.96000E-02      7.10000E-04
                             106.0                       3.62000E-02      6.80000E-04
                             108.0                       3.11000E-02      6.30000E-04
                             110.0                       2.95000E-02      6.10000E-04
                             112.0                       2.76000E-02      5.90000E-04
                             114.0                       2.50000E-02      5.60000E-04
                             116.0                       2.37000E-02      5.50000E-04
                             118.0                       2.22000E-02      5.30000E-04
                             120.0                       2.38000E-02      5.50000E-04
                             122.0                       2.54000E-02      5.70000E-04
                             124.0                       2.72000E-02      5.90000E-04
                             126.0                       2.96000E-02      6.10000E-04
                             128.0                       3.14000E-02      6.30000E-04
                             130.0                       3.64000E-02      6.80000E-04
                             132.0                       4.01000E-02      7.20000E-04
                             134.0                       4.16000E-02      7.30000E-04
                             136.0                       4.23000E-02      7.30000E-04
                             138.0                       4.09000E-02      7.20000E-04
                             140.0                       3.67000E-02      6.80000E-04
                             142.0                       3.15000E-02      6.30000E-04
                             144.0                       2.53000E-02      5.70000E-04
                             146.0                       1.97000E-02      5.00000E-04
                             148.0                       1.36000E-02      4.20000E-04
                             150.0                       9.20000E-03      3.40000E-04
                             152.0                       3.19000E-02      6.40000E-04
                             154.0                       3.71000E-02      6.90000E-04
                             156.0                       5.70000E-03      2.70000E-04
                             158.0                       3.40000E-03      2.10000E-04
                             160.0                       2.00000E-03      1.60000E-04
                             162.0                       1.30000E-03      1.30000E-04
                             164.0                       7.00000E-04      1.00000E-04
                             166.0                       3.00000E-04      6.00000E-05
                             168.0                       1.00000E-04      4.00000E-05
