# entry-subent-pointer  : 22402-005-0 
# EXFOR reaction        : ['92-U-238', ['N,F'], 'MASS,PRE,FY'] 
# incident energy       : 5.8000e+00 MeV 
# target                : U-238 
# product               : 62.0 <= A <= 177.0 
# level energy          : - 
# MF-MT number          : 8 - 460 
# first author          : F.Vives 
# institute             : (2ZZZGEL): EC Joint Research Centre (EC-JRC), Geel 
# reference             : (J,NP/A,662,63,2000) 
# year                  : 2000 
# facility              : (VDG): Van de Graaff 
# git                   : https://github.com/IAEA-NDS/exfor_master/blob/main/exforall/224/22402.x4 
# nds                   : https://nds.iaea.org/EXFOR/22402
#
# Charge(No Dim.)    Mass(No Dim.)  Isomer(No Dim.)    Yield(%/fiss)   dYield(%/fiss)
                              62.0                       3.22237E-05      0.00000E+00
                              63.0                       1.61118E-05      0.00000E+00
                              65.0                       1.61118E-05      0.00000E+00
                              66.0                       1.61118E-05      0.00000E+00
                              67.0                       1.61118E-05      0.00000E+00
                              69.0                       1.61118E-05      0.00000E+00
                              70.0                       4.83356E-05      0.00000E+00
                              72.0                       8.05594E-05      0.00000E+00
                              73.0                       9.66712E-05      0.00000E+00
                              74.0                       4.83356E-05      0.00000E+00
                              75.0                       1.28895E-04      0.00000E+00
                              76.0                       2.90013E-04      0.00000E+00
                              77.0                       3.38349E-04      0.00000E+00
                              78.0                       4.99468E-04      0.00000E+00
                              79.0                       9.02265E-04      0.00000E+00
                              80.0                       1.22450E-03      0.00000E+00
                              81.0                       1.83675E-03      0.00000E+00
                              82.0                       2.38455E-03      0.00000E+00
                              83.0                       3.56072E-03      0.00000E+00
                              84.0                       5.05913E-03      0.00000E+00
                              85.0                       6.60587E-03      0.00000E+00
                              86.0                       8.73263E-03      0.00000E+00
                              87.0                       1.11655E-02      0.00000E+00
                              88.0                       1.39528E-02      0.00000E+00
                              89.0                       1.75458E-02      0.00000E+00
                              90.0                       2.22666E-02      0.00000E+00
                              91.0                       2.69390E-02      0.00000E+00
                              92.0                       3.16437E-02      0.00000E+00
                              93.0                       3.34321E-02      0.00000E+00
                              94.0                       4.00380E-02      0.00000E+00
                              95.0                       4.40821E-02      0.00000E+00
                              96.0                       4.94151E-02      0.00000E+00
                              97.0                       5.04301E-02      0.00000E+00
                              98.0                       5.22508E-02      0.00000E+00
                              99.0                       5.76321E-02      0.00000E+00
                             100.0                       5.91306E-02      0.00000E+00
                             101.0                       5.75355E-02      0.00000E+00
                             102.0                       5.88889E-02      0.00000E+00
                             103.0                       5.84377E-02      0.00000E+00
                             104.0                       5.59887E-02      0.00000E+00
                             105.0                       5.18963E-02      0.00000E+00
                             106.0                       4.59994E-02      0.00000E+00
                             107.0                       3.67995E-02      0.00000E+00
                             108.0                       2.82280E-02      0.00000E+00
                             109.0                       2.07198E-02      0.00000E+00
                             110.0                       1.46457E-02      0.00000E+00
                             111.0                       9.21599E-03      0.00000E+00
                             112.0                       6.04195E-03      0.00000E+00
                             113.0                       3.80240E-03      0.00000E+00
                             114.0                       2.65846E-03      0.00000E+00
                             115.0                       2.03009E-03      0.00000E+00
                             116.0                       1.45006E-03      0.00000E+00
                             117.0                       1.27283E-03      0.00000E+00
                             118.0                       1.49840E-03      0.00000E+00
                             119.0                       1.01504E-03      0.00000E+00
                             120.0                       1.01504E-03      0.00000E+00
                             121.0                       1.49840E-03      0.00000E+00
                             122.0                       1.27283E-03      0.00000E+00
                             123.0                       1.45006E-03      0.00000E+00
                             124.0                       2.03009E-03      0.00000E+00
                             125.0                       2.65846E-03      0.00000E+00
                             126.0                       3.80240E-03      0.00000E+00
                             127.0                       6.04195E-03      0.00000E+00
                             128.0                       9.21599E-03      0.00000E+00
                             129.0                       1.46457E-02      0.00000E+00
                             130.0                       2.07198E-02      0.00000E+00
                             131.0                       2.82280E-02      0.00000E+00
                             132.0                       3.67995E-02      0.00000E+00
                             133.0                       4.59994E-02      0.00000E+00
                             134.0                       5.18963E-02      0.00000E+00
                             135.0                       5.59887E-02      0.00000E+00
                             136.0                       5.84377E-02      0.00000E+00
                             137.0                       5.88889E-02      0.00000E+00
                             138.0                       5.75355E-02      0.00000E+00
                             139.0                       5.91306E-02      0.00000E+00
                             140.0                       5.76321E-02      0.00000E+00
                             141.0                       5.22508E-02      0.00000E+00
                             142.0                       5.04301E-02      0.00000E+00
                             143.0                       4.94151E-02      0.00000E+00
                             144.0                       4.40821E-02      0.00000E+00
                             145.0                       4.00380E-02      0.00000E+00
                             146.0                       3.34321E-02      0.00000E+00
                             147.0                       3.16437E-02      0.00000E+00
                             148.0                       2.69390E-02      0.00000E+00
                             149.0                       2.22666E-02      0.00000E+00
                             150.0                       1.75458E-02      0.00000E+00
                             151.0                       1.39528E-02      0.00000E+00
                             152.0                       1.11655E-02      0.00000E+00
                             153.0                       8.73263E-03      0.00000E+00
                             154.0                       6.60587E-03      0.00000E+00
                             155.0                       5.05913E-03      0.00000E+00
                             156.0                       3.56072E-03      0.00000E+00
                             157.0                       2.38455E-03      0.00000E+00
                             158.0                       1.83675E-03      0.00000E+00
                             159.0                       1.22450E-03      0.00000E+00
                             160.0                       9.02265E-04      0.00000E+00
                             161.0                       4.99468E-04      0.00000E+00
                             162.0                       3.38349E-04      0.00000E+00
                             163.0                       2.90013E-04      0.00000E+00
                             164.0                       1.28895E-04      0.00000E+00
                             165.0                       4.83356E-05      0.00000E+00
                             166.0                       9.66712E-05      0.00000E+00
                             167.0                       8.05594E-05      0.00000E+00
                             169.0                       4.83356E-05      0.00000E+00
                             170.0                       1.61118E-05      0.00000E+00
                             172.0                       1.61118E-05      0.00000E+00
                             173.0                       1.61118E-05      0.00000E+00
                             174.0                       1.61118E-05      0.00000E+00
                             176.0                       1.61118E-05      0.00000E+00
                             177.0                       3.22237E-05      0.00000E+00
