# entry-subent-pointer  : 22799-003-0 
# EXFOR reaction        : ['92-U-238', ['N,F'], 'MASS,PRE,FY'] 
# incident energy       : 2.0000e+00 MeV 
# target                : U-238 
# product               : 74.0 <= A <= 166.0 
# level energy          : - 
# MF-MT number          : 8 - 460 
# first author          : C.M.Zoeller 
# institute             : (2GERJUL): Forschungszentrum Juelich, Juelich 
# reference             : (T,ZOELLER,1995) 
# year                  : 1995 
# facility              : (LINAC): Linear accelerator 
# git                   : https://github.com/IAEA-NDS/exfor_master/blob/main/exforall/227/22799.x4 
# nds                   : https://nds.iaea.org/EXFOR/22799
#
# Charge(No Dim.)    Mass(No Dim.)  Isomer(No Dim.)    Yield(%/fiss)   dYield(%/fiss)
                              74.0                       1.00000E-04      3.00000E-05
                              76.0                       3.00000E-04      4.00000E-05
                              78.0                       5.00000E-04      6.00000E-05
                              80.0                       1.00000E-03      9.00000E-05
                              82.0                       1.80000E-03      1.20000E-04
                              84.0                       3.60000E-03      1.70000E-04
                              86.0                       6.40000E-03      2.20000E-04
                              88.0                       1.14000E-02      3.00000E-04
                              90.0                       1.82000E-02      3.70000E-04
                              92.0                       2.65000E-02      4.50000E-04
                              94.0                       3.56000E-02      5.20000E-04
                              96.0                       4.48000E-02      5.90000E-04
                              98.0                       5.26000E-02      6.40000E-04
                             100.0                       5.63000E-02      6.60000E-04
                             102.0                       5.93000E-02      6.80000E-04
                             104.0                       5.60000E-02      6.60000E-04
                             106.0                       4.68000E-02      6.00000E-04
                             108.0                       3.40000E-02      5.10000E-04
                             110.0                       2.25000E-02      4.20000E-04
                             112.0                       1.13000E-02      3.00000E-04
                             114.0                       5.60000E-03      2.10000E-04
                             116.0                       3.10000E-03      1.50000E-04
                             118.0                       1.90000E-03      1.20000E-04
                             120.0                       2.00000E-03      1.20000E-04
                             122.0                       2.40000E-03      1.40000E-04
                             124.0                       3.80000E-03      1.70000E-04
                             126.0                       7.90000E-03      2.50000E-04
                             128.0                       1.63000E-02      3.50000E-04
                             130.0                       2.87000E-02      4.70000E-04
                             132.0                       4.09000E-02      5.60000E-04
                             134.0                       5.08000E-02      6.30000E-04
                             136.0                       5.86000E-02      6.70000E-04
                             138.0                       5.84000E-02      6.70000E-04
                             140.0                       5.57000E-02      6.60000E-04
                             142.0                       4.84000E-02      6.10000E-04
                             144.0                       4.02000E-02      5.60000E-04
                             146.0                       3.11000E-02      4.90000E-04
                             148.0                       2.20000E-02      4.10000E-04
                             150.0                       1.46000E-02      3.40000E-04
                             152.0                       8.60000E-03      2.60000E-04
                             154.0                       5.00000E-03      2.00000E-04
                             156.0                       2.50000E-03      1.40000E-04
                             158.0                       1.50000E-03      1.10000E-04
                             160.0                       7.00000E-04      7.00000E-05
                             162.0                       4.00000E-04      5.00000E-05
                             164.0                       2.00000E-04      4.00000E-05
                             166.0                       1.00000E-04      2.00000E-05
