# entry-subent-pointer  : 22402-005-0 
# EXFOR reaction        : ['92-U-238', ['N,F'], 'MASS,PRE,FY'] 
# incident energy       : 1.7000e+00 MeV 
# target                : U-238 
# product               : 63.0 <= A <= 176.0 
# level energy          : - 
# MF-MT number          : 8 - 460 
# first author          : F.Vives 
# institute             : (2ZZZGEL): EC Joint Research Centre (EC-JRC), Geel 
# reference             : (J,NP/A,662,63,2000) 
# year                  : 2000 
# facility              : (VDG): Van de Graaff 
# git                   : https://github.com/IAEA-NDS/exfor_master/blob/main/exforall/224/22402.x4 
# nds                   : https://nds.iaea.org/EXFOR/22402
#
# Charge(No Dim.)    Mass(No Dim.)  Isomer(No Dim.)    Yield(%/fiss)   dYield(%/fiss)
                              63.0                       1.42468E-05      0.00000E+00
                              64.0                       7.12340E-06      0.00000E+00
                              67.0                       7.12340E-06      0.00000E+00
                              68.0                       7.12340E-06      0.00000E+00
                              70.0                       1.42468E-05      0.00000E+00
                              71.0                       2.84936E-05      0.00000E+00
                              72.0                       3.56171E-05      0.00000E+00
                              73.0                       3.56171E-05      0.00000E+00
                              74.0                       2.13702E-05      0.00000E+00
                              75.0                       1.42468E-05      0.00000E+00
                              76.0                       7.83576E-05      0.00000E+00
                              77.0                       1.28221E-04      0.00000E+00
                              78.0                       1.85208E-04      0.00000E+00
                              79.0                       4.13158E-04      0.00000E+00
                              80.0                       8.04946E-04      0.00000E+00
                              81.0                       1.19673E-03      0.00000E+00
                              82.0                       1.75236E-03      0.00000E+00
                              83.0                       2.43620E-03      0.00000E+00
                              84.0                       3.95349E-03      0.00000E+00
                              85.0                       5.38530E-03      0.00000E+00
                              86.0                       7.75028E-03      0.00000E+00
                              87.0                       9.26044E-03      0.00000E+00
                              88.0                       1.25229E-02      0.00000E+00
                              89.0                       1.77871E-02      0.00000E+00
                              90.0                       2.11779E-02      0.00000E+00
                              91.0                       2.68481E-02      0.00000E+00
                              92.0                       3.21622E-02      0.00000E+00
                              93.0                       3.63650E-02      0.00000E+00
                              94.0                       3.99267E-02      0.00000E+00
                              95.0                       4.40654E-02      0.00000E+00
                              96.0                       4.76912E-02      0.00000E+00
                              97.0                       5.12957E-02      0.00000E+00
                              98.0                       5.37034E-02      0.00000E+00
                              99.0                       5.67807E-02      0.00000E+00
                             100.0                       5.92241E-02      0.00000E+00
                             101.0                       6.12970E-02      0.00000E+00
                             102.0                       6.25721E-02      0.00000E+00
                             103.0                       6.29781E-02      0.00000E+00
                             104.0                       6.18027E-02      0.00000E+00
                             105.0                       5.54771E-02      0.00000E+00
                             106.0                       4.67153E-02      0.00000E+00
                             107.0                       3.90220E-02      0.00000E+00
                             108.0                       2.97687E-02      0.00000E+00
                             109.0                       1.94326E-02      0.00000E+00
                             110.0                       1.27509E-02      0.00000E+00
                             111.0                       7.62205E-03      0.00000E+00
                             112.0                       3.38362E-03      0.00000E+00
                             113.0                       1.57427E-03      0.00000E+00
                             114.0                       1.00440E-03      0.00000E+00
                             115.0                       5.41379E-04      0.00000E+00
                             116.0                       3.84664E-04      0.00000E+00
                             117.0                       1.85208E-04      0.00000E+00
                             118.0                       1.92332E-04      0.00000E+00
                             119.0                       2.13702E-04      0.00000E+00
                             120.0                       2.13702E-04      0.00000E+00
                             121.0                       1.92332E-04      0.00000E+00
                             122.0                       1.85208E-04      0.00000E+00
                             123.0                       3.84664E-04      0.00000E+00
                             124.0                       5.41379E-04      0.00000E+00
                             125.0                       1.00440E-03      0.00000E+00
                             126.0                       1.57427E-03      0.00000E+00
                             127.0                       3.38362E-03      0.00000E+00
                             128.0                       7.62205E-03      0.00000E+00
                             129.0                       1.27509E-02      0.00000E+00
                             130.0                       1.94326E-02      0.00000E+00
                             131.0                       2.97687E-02      0.00000E+00
                             132.0                       3.90220E-02      0.00000E+00
                             133.0                       4.67153E-02      0.00000E+00
                             134.0                       5.54771E-02      0.00000E+00
                             135.0                       6.18027E-02      0.00000E+00
                             136.0                       6.29781E-02      0.00000E+00
                             137.0                       6.25721E-02      0.00000E+00
                             138.0                       6.12970E-02      0.00000E+00
                             139.0                       5.92241E-02      0.00000E+00
                             140.0                       5.67807E-02      0.00000E+00
                             141.0                       5.37034E-02      0.00000E+00
                             142.0                       5.12957E-02      0.00000E+00
                             143.0                       4.76912E-02      0.00000E+00
                             144.0                       4.40654E-02      0.00000E+00
                             145.0                       3.99267E-02      0.00000E+00
                             146.0                       3.63650E-02      0.00000E+00
                             147.0                       3.21622E-02      0.00000E+00
                             148.0                       2.68481E-02      0.00000E+00
                             149.0                       2.11779E-02      0.00000E+00
                             150.0                       1.77871E-02      0.00000E+00
                             151.0                       1.25229E-02      0.00000E+00
                             152.0                       9.26044E-03      0.00000E+00
                             153.0                       7.75028E-03      0.00000E+00
                             154.0                       5.38530E-03      0.00000E+00
                             155.0                       3.95349E-03      0.00000E+00
                             156.0                       2.43620E-03      0.00000E+00
                             157.0                       1.75236E-03      0.00000E+00
                             158.0                       1.19673E-03      0.00000E+00
                             159.0                       8.04946E-04      0.00000E+00
                             160.0                       4.13158E-04      0.00000E+00
                             161.0                       1.85208E-04      0.00000E+00
                             162.0                       1.28221E-04      0.00000E+00
                             163.0                       7.83576E-05      0.00000E+00
                             164.0                       1.42468E-05      0.00000E+00
                             165.0                       2.13702E-05      0.00000E+00
                             166.0                       3.56171E-05      0.00000E+00
                             167.0                       3.56171E-05      0.00000E+00
                             168.0                       2.84936E-05      0.00000E+00
                             169.0                       1.42468E-05      0.00000E+00
                             171.0                       7.12340E-06      0.00000E+00
                             172.0                       7.12340E-06      0.00000E+00
                             175.0                       7.12340E-06      0.00000E+00
                             176.0                       1.42468E-05      0.00000E+00
